Temperature (K)	Pressure (MPa)	Density (l, kg/m3)	Volume (l, m3/kg)	Internal Energy (l, kJ/kg)	Enthalpy (l, kJ/kg)	Entropy (l, J/g*K)	Cv (l, J/g*K)	Cp (l, J/g*K)	Sound Spd. (l, m/s)	Joule-Thomson (l, K/MPa)	Viscosity (l, uPa*s)	Therm. Cond. (l, W/m*K)	Surf. Tension (l, N/m)	Density (v, kg/m3)	Volume (v, m3/kg)	Internal Energy (v, kJ/kg)	Enthalpy (v, kJ/kg)	Entropy (v, J/g*K)	Cv (v, J/g*K)	Cp (v, J/g*K)	Sound Spd. (v, m/s)	Joule-Thomson (v, K/MPa)	Viscosity (v, uPa*s)	Therm. Cond. (v, W/m*K)
216.59	0.51795	1178.5	0.00084856	79.595	80.034	0.52131	0.97466	1.9532	975.85	-0.14430	253.37	0.17716	0.016495	13.761	0.072672	392.78	430.42	2.1390	0.62920	0.90871	222.78	26.174	10.892	0.011116
217.09	0.52938	1176.7	0.00084986	80.571	81.021	0.52582	0.97394	1.9544	972.21	-0.14253	251.23	0.17653	0.016376	14.050	0.071173	392.93	430.60	2.1361	0.63062	0.91179	222.84	26.008	10.917	0.011161
217.59	0.54081	1174.9	0.00085115	81.532	81.992	0.53024	0.97323	1.9556	968.62	-0.14077	249.15	0.17591	0.016259	14.340	0.069734	393.07	430.78	2.1332	0.63201	0.91486	222.90	25.847	10.941	0.011205
218.08	0.55225	1173.1	0.00085243	82.478	82.949	0.53459	0.97253	1.9568	965.10	-0.13900	247.12	0.17530	0.016144	14.630	0.068354	393.21	430.96	2.1304	0.63340	0.91792	222.95	25.689	10.966	0.011249
218.56	0.56368	1171.4	0.00085369	83.410	83.891	0.53886	0.97185	1.9580	961.63	-0.13724	245.14	0.17470	0.016031	14.919	0.067026	393.35	431.13	2.1277	0.63477	0.92096	223.00	25.536	10.989	0.011292
219.03	0.57511	1169.7	0.00085494	84.328	84.820	0.54306	0.97119	1.9592	958.22	-0.13548	243.20	0.17411	0.015921	15.209	0.065750	393.49	431.30	2.1249	0.63613	0.92399	223.05	25.387	11.013	0.011335
219.50	0.58654	1168.0	0.00085618	85.233	85.735	0.54719	0.97053	1.9604	954.86	-0.13373	241.31	0.17353	0.015811	15.499	0.064522	393.62	431.46	2.1223	0.63747	0.92701	223.10	25.241	11.036	0.011377
219.95	0.59798	1166.3	0.00085741	86.125	86.638	0.55125	0.96989	1.9617	951.55	-0.13197	239.47	0.17296	0.015704	15.788	0.063339	393.75	431.62	2.1197	0.63881	0.93002	223.14	25.098	11.059	0.011419
220.41	0.60941	1164.7	0.00085862	87.005	87.528	0.55525	0.96926	1.9629	948.28	-0.13022	237.67	0.17239	0.015598	16.078	0.062198	393.87	431.78	2.1171	0.64013	0.93302	223.18	24.959	11.082	0.011461
220.85	0.62084	1163.0	0.00085983	87.872	88.406	0.55919	0.96864	1.9642	945.07	-0.12847	235.91	0.17184	0.015494	16.367	0.061098	394.00	431.93	2.1146	0.64144	0.93601	223.22	24.823	11.105	0.011502
221.29	0.63227	1161.4	0.00086102	88.729	89.273	0.56307	0.96804	1.9655	941.89	-0.12672	234.18	0.17129	0.015392	16.657	0.060036	394.12	432.07	2.1122	0.64274	0.93899	223.26	24.691	11.127	0.011544
221.73	0.64370	1159.8	0.00086220	89.574	90.129	0.56688	0.96744	1.9667	938.77	-0.12497	232.50	0.17075	0.015291	16.946	0.059010	394.23	432.22	2.1097	0.64403	0.94196	223.29	24.561	11.149	0.011584
222.15	0.65514	1158.2	0.00086338	90.408	90.974	0.57065	0.96686	1.9680	935.68	-0.12323	230.85	0.17022	0.015191	17.236	0.058019	394.35	432.36	2.1073	0.64531	0.94492	223.32	24.434	11.170	0.011625
222.58	0.66657	1156.7	0.00086454	91.232	91.808	0.57436	0.96628	1.9693	932.63	-0.12148	229.24	0.16970	0.015093	17.525	0.057060	394.46	432.49	2.1050	0.64658	0.94788	223.35	24.310	11.192	0.011665
222.99	0.67800	1155.1	0.00086569	92.045	92.632	0.57801	0.96572	1.9707	929.63	-0.11974	227.65	0.16918	0.014996	17.815	0.056133	394.57	432.63	2.1027	0.64784	0.95083	223.38	24.188	11.213	0.011705
223.40	0.68943	1153.6	0.00086684	92.849	93.447	0.58162	0.96517	1.9720	926.66	-0.11800	226.10	0.16867	0.014901	18.104	0.055235	394.67	432.76	2.1004	0.64909	0.95377	223.41	24.069	11.234	0.011744
223.81	0.70087	1152.1	0.00086798	93.643	94.252	0.58517	0.96462	1.9733	923.73	-0.11625	224.59	0.16817	0.014807	18.394	0.054365	394.78	432.88	2.0982	0.65033	0.95670	223.43	23.953	11.255	0.011784
224.21	0.71230	1150.6	0.00086911	94.428	95.047	0.58868	0.96408	1.9747	920.83	-0.11451	223.10	0.16768	0.014714	18.684	0.053522	394.88	433.00	2.0960	0.65156	0.95963	223.45	23.839	11.275	0.011823
224.61	0.72373	1149.1	0.00087023	95.204	95.834	0.59214	0.96356	1.9760	917.97	-0.11277	221.64	0.16719	0.014622	18.974	0.052705	394.98	433.13	2.0938	0.65279	0.96255	223.47	23.727	11.296	0.011861
225.00	0.73516	1147.7	0.00087134	95.972	96.612	0.59556	0.96304	1.9774	915.14	-0.11103	220.20	0.16670	0.014532	19.263	0.051912	395.08	433.24	2.0917	0.65400	0.96547	223.49	23.617	11.316	0.011900
225.39	0.74659	1146.2	0.00087244	96.730	97.382	0.59893	0.96253	1.9787	912.35	-0.10929	218.80	0.16622	0.014443	19.553	0.051142	395.17	433.36	2.0896	0.65521	0.96838	223.50	23.509	11.336	0.011938
225.77	0.75803	1144.8	0.00087354	97.481	98.143	0.60226	0.96203	1.9801	909.58	-0.10755	217.42	0.16575	0.014355	19.843	0.050395	395.27	433.47	2.0875	0.65641	0.97129	223.52	23.403	11.356	0.011976
226.15	0.76946	1143.3	0.00087463	98.223	98.896	0.60555	0.96154	1.9815	906.85	-0.10581	216.07	0.16529	0.014268	20.133	0.049669	395.36	433.58	2.0854	0.65760	0.97419	223.53	23.300	11.375	0.012014
226.53	0.78089	1141.9	0.00087571	98.958	99.642	0.60880	0.96105	1.9829	904.15	-0.10407	214.74	0.16483	0.014182	20.423	0.048964	395.45	433.68	2.0834	0.65879	0.97709	223.54	23.198	11.394	0.012052
226.90	0.79232	1140.5	0.00087679	99.685	100.38	0.61201	0.96057	1.9843	901.47	-0.10233	213.43	0.16437	0.014097	20.714	0.048278	395.54	433.79	2.0814	0.65996	0.97999	223.55	23.098	11.414	0.012089
227.27	0.80376	1139.1	0.00087786	100.40	101.11	0.61518	0.96010	1.9857	898.83	-0.10059	212.15	0.16392	0.014013	21.004	0.047610	395.62	433.89	2.0795	0.66113	0.98288	223.56	22.999	11.433	0.012127
227.63	0.81519	1137.8	0.00087892	101.12	101.83	0.61832	0.95964	1.9871	896.21	-0.098847	210.88	0.16348	0.013930	21.294	0.046961	395.71	433.99	2.0775	0.66230	0.98576	223.56	22.903	11.452	0.012164
227.99	0.82662	1136.4	0.00087998	101.82	102.55	0.62142	0.95918	1.9886	893.62	-0.097106	209.64	0.16304	0.013848	21.585	0.046329	395.79	434.09	2.0756	0.66345	0.98865	223.57	22.808	11.470	0.012201
228.34	0.83805	1135.0	0.00088103	102.52	103.26	0.62448	0.95873	1.9900	891.06	-0.095364	208.43	0.16260	0.013767	21.875	0.045714	395.87	434.18	2.0737	0.66460	0.99153	223.57	22.715	11.489	0.012237
228.69	0.84949	1133.7	0.00088207	103.21	103.96	0.62751	0.95829	1.9914	888.52	-0.093621	207.23	0.16217	0.013687	22.166	0.045114	395.95	434.27	2.0718	0.66575	0.99441	223.58	22.623	11.507	0.012274
229.04	0.86092	1132.4	0.00088311	103.90	104.66	0.63051	0.95786	1.9929	886.00	-0.091878	206.05	0.16174	0.013608	22.457	0.044530	396.02	434.36	2.0700	0.66689	0.99728	223.58	22.533	11.526	0.012310
229.39	0.87235	1131.0	0.00088414	104.58	105.35	0.63347	0.95743	1.9943	883.51	-0.090133	204.89	0.16132	0.013529	22.748	0.043960	396.10	434.45	2.0682	0.66802	1.0002	223.58	22.444	11.544	0.012346
229.73	0.88378	1129.7	0.00088517	105.25	106.03	0.63641	0.95700	1.9958	881.04	-0.088388	203.74	0.16091	0.013452	23.039	0.043405	396.17	434.53	2.0664	0.66914	1.0030	223.58	22.357	11.562	0.012382
230.07	0.89521	1128.4	0.00088619	105.91	106.71	0.63931	0.95659	1.9973	878.60	-0.086642	202.62	0.16049	0.013375	23.330	0.042863	396.25	434.62	2.0646	0.67026	1.0059	223.57	22.271	11.580	0.012418
230.40	0.90665	1127.1	0.00088721	106.58	107.38	0.64218	0.95618	1.9987	876.18	-0.084895	201.51	0.16008	0.013299	23.621	0.042335	396.32	434.70	2.0628	0.67137	1.0088	223.57	22.186	11.597	0.012454
230.74	0.91808	1125.8	0.00088822	107.23	108.05	0.64503	0.95577	2.0002	873.78	-0.083147	200.42	0.15968	0.013224	23.913	0.041819	396.39	434.78	2.0611	0.67248	1.0116	223.57	22.103	11.615	0.012490
231.06	0.92951	1124.6	0.00088923	107.88	108.71	0.64784	0.95537	2.0017	871.40	-0.081398	199.35	0.15928	0.013150	24.204	0.041315	396.45	434.86	2.0594	0.67358	1.0145	223.56	22.021	11.633	0.012525
231.39	0.94094	1123.3	0.00089023	108.52	109.36	0.65063	0.95498	2.0032	869.05	-0.079647	198.29	0.15888	0.013076	24.496	0.040823	396.52	434.93	2.0577	0.67468	1.0174	223.55	21.940	11.650	0.012560
231.71	0.95238	1122.0	0.00089123	109.16	110.01	0.65339	0.95459	2.0047	866.71	-0.077895	197.25	0.15849	0.013004	24.788	0.040342	396.59	435.01	2.0560	0.67577	1.0202	223.54	21.861	11.667	0.012595
232.03	0.96381	1120.8	0.00089222	109.79	110.65	0.65612	0.95421	2.0062	864.39	-0.076142	196.23	0.15810	0.012932	25.080	0.039872	396.65	435.08	2.0543	0.67686	1.0231	223.54	21.782	11.684	0.012630
232.35	0.97524	1119.6	0.00089321	110.42	111.29	0.65883	0.95383	2.0077	862.09	-0.074387	195.22	0.15771	0.012860	25.372	0.039413	396.71	435.15	2.0527	0.67794	1.0260	223.53	21.705	11.701	0.012665
232.66	0.98667	1118.3	0.00089419	111.04	111.92	0.66151	0.95346	2.0093	859.82	-0.072631	194.22	0.15733	0.012790	25.665	0.038964	396.77	435.22	2.0510	0.67901	1.0288	223.52	21.629	11.718	0.012700
232.98	0.99810	1117.1	0.00089517	111.66	112.55	0.66416	0.95309	2.0108	857.56	-0.070873	193.24	0.15695	0.012720	25.957	0.038525	396.83	435.29	2.0494	0.68008	1.0317	223.50	21.554	11.735	0.012735
233.29	1.0095	1115.9	0.00089615	112.27	113.18	0.66679	0.95273	2.0123	855.32	-0.069113	192.27	0.15658	0.012650	26.250	0.038096	396.89	435.35	2.0478	0.68115	1.0345	223.49	21.480	11.752	0.012769
233.59	1.0210	1114.7	0.00089712	112.88	113.80	0.66940	0.95237	2.0139	853.09	-0.067352	191.31	0.15621	0.012582	26.543	0.037675	396.95	435.41	2.0462	0.68221	1.0374	223.48	21.407	11.768	0.012804
233.90	1.0324	1113.5	0.00089808	113.48	114.41	0.67198	0.95202	2.0154	850.89	-0.065588	190.37	0.15584	0.012514	26.836	0.037264	397.01	435.48	2.0447	0.68327	1.0403	223.46	21.335	11.785	0.012838
234.20	1.0438	1112.3	0.00089905	114.08	115.02	0.67455	0.95167	2.0170	848.70	-0.063823	189.44	0.15547	0.012446	27.129	0.036861	397.06	435.54	2.0431	0.68432	1.0431	223.45	21.264	11.801	0.012872
234.50	1.0553	1111.1	0.00090000	114.68	115.63	0.67708	0.95133	2.0186	846.53	-0.062056	188.52	0.15511	0.012380	27.422	0.036467	397.11	435.60	2.0416	0.68537	1.0460	223.43	21.194	11.818	0.012907
234.79	1.0667	1109.9	0.00090096	115.26	116.23	0.67960	0.95099	2.0201	844.37	-0.060288	187.62	0.15475	0.012313	27.716	0.036080	397.17	435.65	2.0401	0.68641	1.0489	223.41	21.125	11.834	0.012941
235.09	1.0781	1108.8	0.00090191	115.85	116.82	0.68210	0.95066	2.0217	842.23	-0.058517	186.72	0.15439	0.012248	28.010	0.035702	397.22	435.71	2.0385	0.68745	1.0517	223.40	21.057	11.850	0.012974
235.38	1.0896	1107.6	0.00090286	116.43	117.41	0.68457	0.95033	2.0233	840.11	-0.056744	185.84	0.15404	0.012183	28.304	0.035331	397.27	435.76	2.0371	0.68848	1.0546	223.38	20.989	11.866	0.013008
235.67	1.1010	1106.4	0.00090380	117.01	118.00	0.68702	0.95000	2.0249	838.00	-0.054968	184.97	0.15369	0.012119	28.598	0.034968	397.32	435.82	2.0356	0.68951	1.0575	223.36	20.923	11.882	0.013042
235.96	1.1124	1105.3	0.00090474	117.58	118.59	0.68945	0.94968	2.0265	835.91	-0.053191	184.11	0.15334	0.012055	28.892	0.034612	397.37	435.87	2.0341	0.69054	1.0603	223.34	20.857	11.898	0.013076
236.24	1.1239	1104.1	0.00090568	118.15	119.17	0.69187	0.94936	2.0281	833.83	-0.051411	183.26	0.15300	0.011991	29.187	0.034262	397.41	435.92	2.0327	0.69156	1.0632	223.32	20.792	11.913	0.013109
236.53	1.1353	1103.0	0.00090662	118.71	119.74	0.69426	0.94905	2.0297	831.76	-0.049629	182.43	0.15266	0.011929	29.481	0.033920	397.46	435.97	2.0312	0.69258	1.0661	223.29	20.728	11.929	0.013143
236.81	1.1467	1101.9	0.00090755	119.27	120.31	0.69663	0.94874	2.0313	829.72	-0.047845	181.60	0.15232	0.011867	29.776	0.033584	397.50	436.02	2.0298	0.69359	1.0690	223.27	20.665	11.945	0.013176
237.09	1.1582	1100.7	0.00090848	119.83	120.88	0.69899	0.94843	2.0329	827.68	-0.046058	180.78	0.15198	0.011805	30.071	0.033254	397.55	436.06	2.0284	0.69460	1.0718	223.25	20.603	11.960	0.013210
237.37	1.1696	1099.6	0.00090940	120.38	121.45	0.70133	0.94813	2.0346	825.66	-0.044269	179.97	0.15165	0.011744	30.367	0.032931	397.59	436.11	2.0270	0.69560	1.0747	223.23	20.541	11.976	0.013243
237.64	1.1810	1098.5	0.00091032	120.93	122.01	0.70364	0.94784	2.0362	823.65	-0.042477	179.18	0.15131	0.011683	30.662	0.032613	397.63	436.15	2.0256	0.69661	1.0776	223.20	20.480	11.991	0.013276
237.91	1.1925	1097.4	0.00091124	121.48	122.57	0.70595	0.94754	2.0378	821.66	-0.040682	178.39	0.15099	0.011623	30.958	0.032302	397.68	436.19	2.0242	0.69760	1.0805	223.18	20.420	12.006	0.013309
238.18	1.2039	1096.3	0.00091216	122.02	123.12	0.70823	0.94725	2.0395	819.67	-0.038885	177.61	0.15066	0.011563	31.254	0.031996	397.72	436.24	2.0228	0.69860	1.0834	223.15	20.360	12.022	0.013342
238.45	1.2153	1095.2	0.00091307	122.56	123.67	0.71049	0.94697	2.0411	817.70	-0.037085	176.84	0.15033	0.011504	31.550	0.031695	397.76	436.28	2.0215	0.69959	1.0863	223.12	20.302	12.037	0.013375
238.72	1.2267	1094.1	0.00091398	123.10	124.22	0.71274	0.94668	2.0428	815.75	-0.035283	176.08	0.15001	0.011445	31.847	0.031400	397.79	436.31	2.0201	0.70058	1.0891	223.10	20.243	12.052	0.013408
238.99	1.2382	1093.0	0.00091489	123.63	124.76	0.71498	0.94640	2.0445	813.80	-0.033477	175.32	0.14969	0.011387	32.143	0.031111	397.83	436.35	2.0188	0.70156	1.0920	223.07	20.186	12.067	0.013441
239.25	1.2496	1091.9	0.00091580	124.16	125.30	0.71719	0.94613	2.0461	811.87	-0.031669	174.58	0.14938	0.011329	32.440	0.030826	397.87	436.39	2.0174	0.70254	1.0949	223.04	20.129	12.082	0.013474
239.51	1.2610	1090.9	0.00091670	124.68	125.84	0.71939	0.94586	2.0478	809.95	-0.029858	173.85	0.14906	0.011272	32.737	0.030546	397.90	436.42	2.0161	0.70352	1.0978	223.01	20.073	12.097	0.013507
239.77	1.2725	1089.8	0.00091760	125.21	126.37	0.72158	0.94559	2.0495	808.04	-0.028044	173.12	0.14875	0.011215	33.035	0.030271	397.94	436.46	2.0148	0.70449	1.1007	222.98	20.017	12.111	0.013540
240.03	1.2839	1088.7	0.00091850	125.73	126.90	0.72375	0.94532	2.0512	806.15	-0.026227	172.40	0.14844	0.011158	33.332	0.030001	397.97	436.49	2.0135	0.70547	1.1036	222.95	19.962	12.126	0.013572
240.29	1.2953	1087.7	0.00091939	126.24	127.43	0.72590	0.94506	2.0529	804.26	-0.024407	171.69	0.14813	0.011102	33.630	0.029735	398.01	436.52	2.0122	0.70643	1.1066	222.92	19.908	12.141	0.013605
240.54	1.3068	1086.6	0.00092028	126.75	127.96	0.72804	0.94480	2.0546	802.38	-0.022584	170.98	0.14782	0.011047	33.928	0.029474	398.04	436.55	2.0110	0.70740	1.1095	222.89	19.854	12.155	0.013638
240.80	1.3182	1085.6	0.00092117	127.26	128.48	0.73017	0.94454	2.0563	800.52	-0.020757	170.29	0.14752	0.010991	34.227	0.029217	398.07	436.58	2.0097	0.70836	1.1124	222.86	19.801	12.170	0.013670
241.05	1.3296	1084.5	0.00092206	127.77	129.00	0.73228	0.94429	2.0580	798.67	-0.018928	169.60	0.14722	0.010937	34.525	0.028964	398.10	436.61	2.0084	0.70932	1.1153	222.83	19.748	12.185	0.013703
241.30	1.3411	1083.5	0.00092295	128.28	129.51	0.73437	0.94404	2.0598	796.82	-0.017095	168.92	0.14692	0.010882	34.824	0.028716	398.13	436.64	2.0072	0.71028	1.1182	222.80	19.696	12.199	0.013735
241.55	1.3525	1082.4	0.00092383	128.78	130.03	0.73645	0.94379	2.0615	794.99	-0.015258	168.24	0.14662	0.010828	35.123	0.028471	398.16	436.67	2.0059	0.71123	1.1212	222.76	19.645	12.213	0.013768
241.80	1.3639	1081.4	0.00092471	129.28	130.54	0.73852	0.94355	2.0632	793.17	-0.013419	167.58	0.14632	0.010775	35.422	0.028231	398.19	436.69	2.0047	0.71218	1.1241	222.73	19.594	12.228	0.013800
242.04	1.3754	1080.4	0.00092559	129.77	131.04	0.74058	0.94331	2.0650	791.36	-0.011576	166.91	0.14603	0.010721	35.722	0.027994	398.22	436.72	2.0035	0.71313	1.1271	222.70	19.543	12.242	0.013832
242.29	1.3868	1079.4	0.00092647	130.27	131.55	0.74262	0.94307	2.0667	789.55	-0.0097298	166.26	0.14574	0.010668	36.022	0.027761	398.24	436.74	2.0023	0.71408	1.1300	222.66	19.493	12.256	0.013865
242.53	1.3982	1078.3	0.00092735	130.76	132.05	0.74465	0.94284	2.0685	787.76	-0.0078799	165.61	0.14545	0.010616	36.322	0.027532	398.27	436.77	2.0010	0.71502	1.1330	222.63	19.444	12.270	0.013897
242.77	1.4097	1077.3	0.00092822	131.24	132.55	0.74666	0.94261	2.0703	785.98	-0.0060266	164.97	0.14516	0.010564	36.622	0.027306	398.30	436.79	1.9998	0.71596	1.1359	222.59	19.395	12.285	0.013929
243.01	1.4211	1076.3	0.00092909	131.73	133.05	0.74866	0.94238	2.0720	784.20	-0.0041696	164.34	0.14487	0.010512	36.923	0.027084	398.32	436.81	1.9986	0.71690	1.1389	222.56	19.346	12.299	0.013962
243.25	1.4325	1075.3	0.00092996	132.21	133.54	0.75065	0.94215	2.0738	782.44	-0.0023091	163.71	0.14458	0.010461	37.224	0.026865	398.34	436.83	1.9975	0.71784	1.1418	222.52	19.298	12.313	0.013994
243.49	1.4440	1074.3	0.00093083	132.69	134.04	0.75263	0.94193	2.0756	780.68	-0.00044480	163.09	0.14430	0.010410	37.525	0.026649	398.37	436.85	1.9963	0.71877	1.1448	222.48	19.250	12.327	0.014026
243.72	1.4554	1073.3	0.00093170	133.17	134.52	0.75460	0.94171	2.0774	778.93	0.0014232	162.47	0.14402	0.010359	37.826	0.026437	398.39	436.87	1.9951	0.71970	1.1478	222.45	19.203	12.341	0.014058
243.96	1.4668	1072.3	0.00093256	133.64	135.01	0.75655	0.94149	2.0792	777.19	0.0032949	161.86	0.14374	0.010308	38.128	0.026228	398.41	436.88	1.9939	0.72063	1.1508	222.41	19.156	12.355	0.014090
244.19	1.4783	1071.3	0.00093342	134.12	135.50	0.75849	0.94127	2.0810	775.46	0.0051705	161.26	0.14346	0.010258	38.430	0.026021	398.43	436.90	1.9928	0.72156	1.1538	222.37	19.110	12.368	0.014122
244.42	1.4897	1070.3	0.00093428	134.59	135.98	0.76042	0.94106	2.0828	773.74	0.0070499	160.66	0.14318	0.010209	38.732	0.025818	398.45	436.92	1.9916	0.72249	1.1567	222.33	19.064	12.382	0.014154
244.65	1.5011	1069.4	0.00093514	135.05	136.46	0.76234	0.94085	2.0846	772.03	0.0089333	160.07	0.14291	0.010159	39.035	0.025618	398.47	436.93	1.9905	0.72341	1.1597	222.30	19.019	12.396	0.014186
244.88	1.5126	1068.4	0.00093600	135.52	136.94	0.76425	0.94064	2.0864	770.32	0.010821	159.48	0.14264	0.010110	39.337	0.025421	398.49	436.94	1.9894	0.72434	1.1628	222.26	18.974	12.410	0.014219
245.11	1.5240	1067.4	0.00093686	135.98	137.41	0.76615	0.94044	2.0883	768.63	0.012712	158.90	0.14236	0.010062	39.641	0.025227	398.51	436.96	1.9882	0.72526	1.1658	222.22	18.929	12.423	0.014251
245.34	1.5354	1066.4	0.00093771	136.44	137.88	0.76803	0.94024	2.0901	766.94	0.014607	158.32	0.14209	0.010013	39.944	0.025035	398.53	436.97	1.9871	0.72617	1.1688	222.18	18.885	12.437	0.014283
245.56	1.5469	1065.5	0.00093857	136.90	138.36	0.76991	0.94004	2.0920	765.26	0.016507	157.75	0.14183	0.0099650	40.248	0.024846	398.55	436.98	1.9860	0.72709	1.1718	222.14	18.841	12.451	0.014315
245.78	1.5583	1064.5	0.00093942	137.36	138.82	0.77177	0.93984	2.0938	763.58	0.018410	157.19	0.14156	0.0099172	40.552	0.024660	398.56	436.99	1.9849	0.72801	1.1748	222.10	18.798	12.464	0.014347
246.01	1.5697	1063.5	0.00094027	137.81	139.29	0.77362	0.93964	2.0957	761.91	0.020318	156.63	0.14129	0.0098697	40.856	0.024476	398.58	437.00	1.9838	0.72892	1.1779	222.05	18.755	12.478	0.014379
246.23	1.5811	1062.6	0.00094112	138.27	139.76	0.77547	0.93945	2.0975	760.26	0.022230	156.07	0.14103	0.0098225	41.160	0.024295	398.60	437.01	1.9827	0.72984	1.1809	222.01	18.712	12.491	0.014411
246.45	1.5926	1061.6	0.00094196	138.72	140.22	0.77730	0.93926	2.0994	758.60	0.024146	155.52	0.14077	0.0097756	41.465	0.024117	398.61	437.02	1.9816	0.73075	1.1840	221.97	18.669	12.505	0.014443
246.67	1.6040	1060.7	0.00094281	139.17	140.68	0.77912	0.93908	2.1013	756.96	0.026067	154.98	0.14050	0.0097290	41.770	0.023940	398.62	437.03	1.9805	0.73166	1.1871	221.93	18.627	12.518	0.014475
246.89	1.6154	1059.7	0.00094365	139.61	141.14	0.78094	0.93889	2.1032	755.32	0.027991	154.43	0.14024	0.0096827	42.076	0.023767	398.64	437.03	1.9794	0.73256	1.1901	221.89	18.586	12.532	0.014506
247.10	1.6269	1058.8	0.00094450	140.06	141.59	0.78274	0.93871	2.1051	753.69	0.029921	153.90	0.13999	0.0096366	42.382	0.023595	398.65	437.04	1.9784	0.73347	1.1932	221.84	18.544	12.545	0.014538
247.32	1.6383	1057.8	0.00094534	140.50	142.05	0.78453	0.93853	2.1070	752.07	0.031854	153.37	0.13973	0.0095909	42.688	0.023426	398.66	437.04	1.9773	0.73438	1.1963	221.80	18.503	12.558	0.014570
247.54	1.6497	1056.9	0.00094618	140.94	142.50	0.78632	0.93835	2.1089	750.45	0.033793	152.84	0.13947	0.0095454	42.994	0.023259	398.68	437.05	1.9762	0.73528	1.1994	221.76	18.463	12.572	0.014602
247.75	1.6612	1055.9	0.00094702	141.38	142.95	0.78809	0.93818	2.1108	748.84	0.035735	152.32	0.13922	0.0095002	43.301	0.023094	398.69	437.05	1.9752	0.73619	1.2025	221.71	18.423	12.585	0.014634
