Temperature (K)	Pressure (MPa)	Density (l, kg/m3)	Volume (l, m3/kg)	Internal Energy (l, kJ/kg)	Enthalpy (l, kJ/kg)	Entropy (l, J/g*K)	Cv (l, J/g*K)	Cp (l, J/g*K)	Sound Spd. (l, m/s)	Joule-Thomson (l, K/MPa)	Viscosity (l, uPa*s)	Therm. Cond. (l, W/m*K)	Surf. Tension (l, N/m)	Density (v, kg/m3)	Volume (v, m3/kg)	Internal Energy (v, kJ/kg)	Enthalpy (v, kJ/kg)	Entropy (v, J/g*K)	Cv (v, J/g*K)	Cp (v, J/g*K)	Sound Spd. (v, m/s)	Joule-Thomson (v, K/MPa)	Viscosity (v, uPa*s)	Therm. Cond. (v, W/m*K)
230.21	0.90000	1127.9	0.00088662	106.19	106.99	0.64052	0.95641	1.9979	877.58	-0.085911	202.15	0.16032	0.013343	23.452	0.042640	396.28	434.65	2.0638	0.67073	1.0071	223.57	22.235	11.587	0.012433
230.25	0.90138	1127.7	0.00088674	106.27	107.07	0.64086	0.95636	1.9981	877.29	-0.085700	202.02	0.16027	0.013334	23.487	0.042576	396.28	434.66	2.0636	0.67086	1.0074	223.57	22.225	11.589	0.012438
230.29	0.90277	1127.6	0.00088687	106.35	107.15	0.64121	0.95632	1.9982	877.00	-0.085488	201.89	0.16022	0.013325	23.522	0.042513	396.29	434.67	2.0634	0.67100	1.0078	223.57	22.215	11.591	0.012442
230.33	0.90415	1127.4	0.00088699	106.43	107.23	0.64156	0.95627	1.9984	876.71	-0.085277	201.75	0.16017	0.013316	23.558	0.042449	396.30	434.68	2.0632	0.67113	1.0081	223.57	22.205	11.594	0.012446
230.37	0.90553	1127.3	0.00088711	106.51	107.31	0.64190	0.95622	1.9986	876.41	-0.085066	201.62	0.16012	0.013307	23.593	0.042386	396.31	434.69	2.0630	0.67127	1.0085	223.57	22.195	11.596	0.012450
230.41	0.90691	1127.1	0.00088723	106.59	107.40	0.64225	0.95617	1.9988	876.12	-0.084854	201.49	0.16007	0.013297	23.628	0.042322	396.32	434.70	2.0628	0.67140	1.0088	223.57	22.184	11.598	0.012455
230.45	0.90830	1126.9	0.00088736	106.67	107.48	0.64260	0.95612	1.9990	875.83	-0.084643	201.36	0.16002	0.013288	23.663	0.042259	396.33	434.71	2.0626	0.67153	1.0092	223.57	22.174	11.600	0.012459
230.49	0.90968	1126.8	0.00088748	106.75	107.56	0.64294	0.95607	1.9991	875.54	-0.084432	201.22	0.15998	0.013279	23.699	0.042197	396.34	434.72	2.0624	0.67167	1.0095	223.57	22.164	11.602	0.012463
230.53	0.91106	1126.6	0.00088760	106.83	107.64	0.64329	0.95602	1.9993	875.25	-0.084220	201.09	0.15993	0.013270	23.734	0.042134	396.34	434.73	2.0622	0.67180	1.0099	223.57	22.154	11.604	0.012468
230.57	0.91245	1126.5	0.00088772	106.91	107.72	0.64363	0.95597	1.9995	874.96	-0.084009	200.96	0.15988	0.013261	23.769	0.042071	396.35	434.74	2.0619	0.67194	1.0102	223.57	22.144	11.606	0.012472
230.61	0.91383	1126.3	0.00088785	106.99	107.80	0.64397	0.95592	1.9997	874.67	-0.083797	200.83	0.15983	0.013252	23.804	0.042009	396.36	434.75	2.0617	0.67207	1.0106	223.57	22.134	11.609	0.012476
230.65	0.91521	1126.2	0.00088797	107.07	107.88	0.64432	0.95587	1.9999	874.38	-0.083586	200.70	0.15978	0.013243	23.840	0.041947	396.37	434.76	2.0615	0.67220	1.0109	223.57	22.124	11.611	0.012481
230.69	0.91659	1126.0	0.00088809	107.15	107.96	0.64466	0.95582	2.0000	874.09	-0.083374	200.56	0.15973	0.013234	23.875	0.041885	396.38	434.77	2.0613	0.67234	1.0113	223.57	22.114	11.613	0.012485
230.73	0.91798	1125.9	0.00088821	107.22	108.04	0.64500	0.95577	2.0002	873.80	-0.083163	200.43	0.15968	0.013225	23.910	0.041823	396.39	434.78	2.0611	0.67247	1.0116	223.57	22.104	11.615	0.012489
230.77	0.91936	1125.7	0.00088834	107.30	108.12	0.64534	0.95573	2.0004	873.51	-0.082951	200.30	0.15963	0.013216	23.945	0.041762	396.39	434.79	2.0609	0.67261	1.0120	223.57	22.094	11.617	0.012493
230.81	0.92074	1125.5	0.00088846	107.38	108.20	0.64568	0.95568	2.0006	873.22	-0.082740	200.17	0.15959	0.013207	23.981	0.041700	396.40	434.80	2.0607	0.67274	1.0123	223.56	22.084	11.619	0.012498
230.85	0.92213	1125.4	0.00088858	107.46	108.28	0.64603	0.95563	2.0007	872.94	-0.082528	200.04	0.15954	0.013198	24.016	0.041639	396.41	434.81	2.0605	0.67287	1.0127	223.56	22.074	11.621	0.012502
230.89	0.92351	1125.2	0.00088870	107.54	108.36	0.64637	0.95558	2.0009	872.65	-0.082316	199.91	0.15949	0.013189	24.051	0.041578	396.42	434.82	2.0603	0.67301	1.0130	223.56	22.064	11.623	0.012506
230.93	0.92489	1125.1	0.00088882	107.62	108.44	0.64671	0.95553	2.0011	872.36	-0.082105	199.78	0.15944	0.013180	24.087	0.041517	396.43	434.83	2.0601	0.67314	1.0133	223.56	22.054	11.626	0.012511
230.97	0.92627	1124.9	0.00088894	107.70	108.52	0.64705	0.95548	2.0013	872.07	-0.081893	199.65	0.15939	0.013171	24.122	0.041456	396.44	434.84	2.0598	0.67327	1.0137	223.56	22.044	11.628	0.012515
231.01	0.92766	1124.8	0.00088907	107.77	108.60	0.64739	0.95544	2.0015	871.79	-0.081682	199.52	0.15934	0.013162	24.157	0.041396	396.44	434.84	2.0596	0.67341	1.0140	223.56	22.034	11.630	0.012519
231.05	0.92904	1124.6	0.00088919	107.85	108.68	0.64773	0.95539	2.0017	871.50	-0.081470	199.40	0.15929	0.013153	24.192	0.041335	396.45	434.85	2.0594	0.67354	1.0144	223.56	22.024	11.632	0.012523
231.09	0.93042	1124.5	0.00088931	107.93	108.76	0.64806	0.95534	2.0018	871.21	-0.081258	199.27	0.15925	0.013144	24.228	0.041275	396.46	434.86	2.0592	0.67367	1.0147	223.56	22.015	11.634	0.012528
231.13	0.93181	1124.3	0.00088943	108.01	108.84	0.64840	0.95529	2.0020	870.93	-0.081047	199.14	0.15920	0.013135	24.263	0.041215	396.47	434.87	2.0590	0.67380	1.0151	223.56	22.005	11.636	0.012532
231.17	0.93319	1124.2	0.00088955	108.09	108.92	0.64874	0.95524	2.0022	870.64	-0.080835	199.01	0.15915	0.013126	24.298	0.041155	396.48	434.88	2.0588	0.67394	1.0154	223.56	21.995	11.638	0.012536
231.21	0.93457	1124.0	0.00088967	108.16	109.00	0.64908	0.95520	2.0024	870.36	-0.080623	198.88	0.15910	0.013117	24.333	0.041096	396.48	434.89	2.0586	0.67407	1.0158	223.56	21.985	11.640	0.012541
231.25	0.93595	1123.9	0.00088979	108.24	109.07	0.64941	0.95515	2.0026	870.07	-0.080411	198.75	0.15905	0.013108	24.369	0.041036	396.49	434.90	2.0584	0.67420	1.0161	223.56	21.975	11.642	0.012545
231.29	0.93734	1123.7	0.00088992	108.32	109.15	0.64975	0.95510	2.0027	869.79	-0.080200	198.63	0.15901	0.013099	24.404	0.040977	396.50	434.91	2.0582	0.67433	1.0165	223.56	21.966	11.644	0.012549
231.33	0.93872	1123.5	0.00089004	108.40	109.23	0.65009	0.95505	2.0029	869.50	-0.079988	198.50	0.15896	0.013091	24.439	0.040918	396.51	434.92	2.0580	0.67447	1.0168	223.55	21.956	11.647	0.012553
231.37	0.94010	1123.4	0.00089016	108.48	109.31	0.65042	0.95501	2.0031	869.22	-0.079776	198.37	0.15891	0.013082	24.475	0.040859	396.52	434.93	2.0578	0.67460	1.0172	223.55	21.946	11.649	0.012558
231.41	0.94148	1123.2	0.00089028	108.55	109.39	0.65076	0.95496	2.0033	868.93	-0.079564	198.24	0.15886	0.013073	24.510	0.040800	396.52	434.94	2.0576	0.67473	1.0175	223.55	21.937	11.651	0.012562
231.44	0.94287	1123.1	0.00089040	108.63	109.47	0.65109	0.95491	2.0035	868.65	-0.079352	198.12	0.15882	0.013064	24.545	0.040741	396.53	434.95	2.0574	0.67486	1.0178	223.55	21.927	11.653	0.012566
231.48	0.94425	1122.9	0.00089052	108.71	109.55	0.65143	0.95487	2.0036	868.37	-0.079140	197.99	0.15877	0.013055	24.581	0.040683	396.54	434.95	2.0572	0.67500	1.0182	223.55	21.917	11.655	0.012570
231.52	0.94563	1122.8	0.00089064	108.78	109.63	0.65176	0.95482	2.0038	868.08	-0.078929	197.87	0.15872	0.013046	24.616	0.040624	396.55	434.96	2.0570	0.67513	1.0185	223.55	21.908	11.657	0.012575
231.56	0.94702	1122.6	0.00089076	108.86	109.71	0.65210	0.95477	2.0040	867.80	-0.078717	197.74	0.15867	0.013038	24.651	0.040566	396.56	434.97	2.0568	0.67526	1.0189	223.55	21.898	11.659	0.012579
231.60	0.94840	1122.5	0.00089088	108.94	109.78	0.65243	0.95472	2.0042	867.52	-0.078505	197.61	0.15862	0.013029	24.686	0.040508	396.56	434.98	2.0566	0.67539	1.0192	223.55	21.888	11.661	0.012583
231.64	0.94978	1122.3	0.00089100	109.02	109.86	0.65276	0.95468	2.0044	867.24	-0.078293	197.49	0.15858	0.013020	24.722	0.040450	396.57	434.99	2.0564	0.67552	1.0196	223.55	21.879	11.663	0.012587
231.68	0.95116	1122.2	0.00089112	109.09	109.94	0.65310	0.95463	2.0046	866.95	-0.078081	197.36	0.15853	0.013011	24.757	0.040392	396.58	435.00	2.0562	0.67566	1.0199	223.55	21.869	11.665	0.012592
231.72	0.95255	1122.0	0.00089124	109.17	110.02	0.65343	0.95458	2.0047	866.67	-0.077869	197.24	0.15848	0.013002	24.792	0.040335	396.59	435.01	2.0560	0.67579	1.0203	223.54	21.860	11.667	0.012596
231.76	0.95393	1121.9	0.00089136	109.25	110.10	0.65376	0.95454	2.0049	866.39	-0.077657	197.11	0.15844	0.012994	24.828	0.040278	396.59	435.02	2.0557	0.67592	1.0206	223.54	21.850	11.670	0.012600
231.80	0.95531	1121.7	0.00089148	109.32	110.17	0.65409	0.95449	2.0051	866.11	-0.077445	196.99	0.15839	0.012985	24.863	0.040220	396.60	435.03	2.0555	0.67605	1.0210	223.54	21.841	11.672	0.012604
231.83	0.95670	1121.6	0.00089160	109.40	110.25	0.65442	0.95445	2.0053	865.83	-0.077233	196.86	0.15834	0.012976	24.898	0.040163	396.61	435.03	2.0553	0.67618	1.0213	223.54	21.831	11.674	0.012609
231.87	0.95808	1121.4	0.00089172	109.48	110.33	0.65475	0.95440	2.0055	865.55	-0.077021	196.74	0.15829	0.012968	24.934	0.040106	396.62	435.04	2.0551	0.67631	1.0217	223.54	21.822	11.676	0.012613
231.91	0.95946	1121.3	0.00089184	109.55	110.41	0.65508	0.95435	2.0056	865.27	-0.076808	196.61	0.15825	0.012959	24.969	0.040050	396.63	435.05	2.0549	0.67645	1.0220	223.54	21.812	11.678	0.012617
231.95	0.96084	1121.1	0.00089196	109.63	110.49	0.65541	0.95431	2.0058	864.99	-0.076596	196.49	0.15820	0.012950	25.004	0.039993	396.63	435.06	2.0547	0.67658	1.0224	223.54	21.803	11.680	0.012621
231.99	0.96223	1121.0	0.00089208	109.71	110.56	0.65574	0.95426	2.0060	864.71	-0.076384	196.37	0.15815	0.012941	25.040	0.039937	396.64	435.07	2.0545	0.67671	1.0227	223.54	21.793	11.682	0.012626
232.03	0.96361	1120.8	0.00089220	109.78	110.64	0.65607	0.95421	2.0062	864.43	-0.076172	196.24	0.15811	0.012933	25.075	0.039880	396.65	435.08	2.0543	0.67684	1.0230	223.54	21.784	11.684	0.012630
232.07	0.96499	1120.7	0.00089232	109.86	110.72	0.65640	0.95417	2.0064	864.15	-0.075960	196.12	0.15806	0.012924	25.110	0.039824	396.66	435.09	2.0541	0.67697	1.0234	223.53	21.774	11.686	0.012634
232.10	0.96638	1120.5	0.00089244	109.93	110.80	0.65673	0.95412	2.0066	863.87	-0.075748	196.00	0.15801	0.012915	25.146	0.039768	396.66	435.10	2.0539	0.67710	1.0237	223.53	21.765	11.688	0.012638
232.14	0.96776	1120.4	0.00089256	110.01	110.87	0.65706	0.95408	2.0067	863.60	-0.075535	195.88	0.15797	0.012907	25.181	0.039712	396.67	435.10	2.0537	0.67723	1.0241	223.53	21.756	11.690	0.012643
232.18	0.96914	1120.2	0.00089268	110.09	110.95	0.65739	0.95403	2.0069	863.32	-0.075323	195.75	0.15792	0.012898	25.216	0.039657	396.68	435.11	2.0535	0.67736	1.0244	223.53	21.746	11.692	0.012647
232.22	0.97052	1120.1	0.00089280	110.16	111.03	0.65771	0.95399	2.0071	863.04	-0.075111	195.63	0.15787	0.012890	25.252	0.039601	396.69	435.12	2.0533	0.67749	1.0248	223.53	21.737	11.694	0.012651
232.26	0.97191	1119.9	0.00089292	110.24	111.11	0.65804	0.95394	2.0073	862.76	-0.074899	195.51	0.15783	0.012881	25.287	0.039546	396.69	435.13	2.0531	0.67762	1.0251	223.53	21.728	11.696	0.012655
232.30	0.97329	1119.8	0.00089304	110.31	111.18	0.65837	0.95389	2.0075	862.49	-0.074686	195.39	0.15778	0.012872	25.322	0.039491	396.70	435.14	2.0529	0.67775	1.0255	223.53	21.718	11.698	0.012659
232.33	0.97467	1119.6	0.00089316	110.39	111.26	0.65869	0.95385	2.0077	862.21	-0.074474	195.27	0.15773	0.012864	25.358	0.039436	396.71	435.15	2.0527	0.67788	1.0258	223.53	21.709	11.701	0.012664
232.37	0.97606	1119.5	0.00089328	110.46	111.34	0.65902	0.95380	2.0079	861.93	-0.074262	195.14	0.15769	0.012855	25.393	0.039381	396.72	435.15	2.0525	0.67802	1.0262	223.53	21.700	11.703	0.012668
232.41	0.97744	1119.3	0.00089340	110.54	111.41	0.65934	0.95376	2.0080	861.65	-0.074049	195.02	0.15764	0.012847	25.428	0.039326	396.72	435.16	2.0523	0.67815	1.0265	223.52	21.690	11.705	0.012672
232.45	0.97882	1119.2	0.00089352	110.62	111.49	0.65967	0.95371	2.0082	861.38	-0.073837	194.90	0.15759	0.012838	25.464	0.039271	396.73	435.17	2.0521	0.67828	1.0269	223.52	21.681	11.707	0.012676
232.49	0.98020	1119.0	0.00089364	110.69	111.57	0.65999	0.95367	2.0084	861.10	-0.073624	194.78	0.15755	0.012829	25.499	0.039217	396.74	435.18	2.0520	0.67841	1.0272	223.52	21.672	11.709	0.012680
232.53	0.98159	1118.9	0.00089375	110.77	111.64	0.66032	0.95362	2.0086	860.83	-0.073412	194.66	0.15750	0.012821	25.535	0.039163	396.75	435.19	2.0518	0.67854	1.0275	223.52	21.663	11.711	0.012685
232.56	0.98297	1118.7	0.00089387	110.84	111.72	0.66064	0.95358	2.0088	860.55	-0.073200	194.54	0.15745	0.012812	25.570	0.039108	396.75	435.20	2.0516	0.67867	1.0279	223.52	21.654	11.713	0.012689
232.60	0.98435	1118.6	0.00089399	110.92	111.80	0.66096	0.95353	2.0090	860.28	-0.072987	194.42	0.15741	0.012804	25.605	0.039054	396.76	435.20	2.0514	0.67880	1.0282	223.52	21.644	11.715	0.012693
232.64	0.98574	1118.4	0.00089411	110.99	111.87	0.66129	0.95349	2.0091	860.00	-0.072775	194.30	0.15736	0.012795	25.641	0.039001	396.77	435.21	2.0512	0.67893	1.0286	223.52	21.635	11.717	0.012697
232.68	0.98712	1118.3	0.00089423	111.07	111.95	0.66161	0.95344	2.0093	859.73	-0.072562	194.18	0.15732	0.012787	25.676	0.038947	396.78	435.22	2.0510	0.67906	1.0289	223.51	21.626	11.719	0.012701
232.71	0.98850	1118.1	0.00089435	111.14	112.03	0.66193	0.95340	2.0095	859.45	-0.072349	194.06	0.15727	0.012778	25.711	0.038893	396.78	435.23	2.0508	0.67919	1.0293	223.51	21.617	11.721	0.012706
232.75	0.98988	1118.0	0.00089447	111.22	112.10	0.66226	0.95335	2.0097	859.18	-0.072137	193.94	0.15722	0.012770	25.747	0.038840	396.79	435.24	2.0506	0.67932	1.0296	223.51	21.608	11.723	0.012710
232.79	0.99127	1117.8	0.00089459	111.29	112.18	0.66258	0.95331	2.0099	858.91	-0.071924	193.82	0.15718	0.012761	25.782	0.038787	396.80	435.25	2.0504	0.67944	1.0300	223.51	21.599	11.725	0.012714
232.83	0.99265	1117.7	0.00089470	111.37	112.25	0.66290	0.95327	2.0101	858.63	-0.071712	193.70	0.15713	0.012753	25.818	0.038733	396.80	435.25	2.0502	0.67957	1.0303	223.51	21.590	11.727	0.012718
232.87	0.99403	1117.5	0.00089482	111.44	112.33	0.66322	0.95322	2.0103	858.36	-0.071499	193.58	0.15709	0.012744	25.853	0.038680	396.81	435.26	2.0500	0.67970	1.0307	223.51	21.581	11.729	0.012722
232.90	0.99542	1117.4	0.00089494	111.52	112.41	0.66354	0.95318	2.0104	858.09	-0.071286	193.47	0.15704	0.012736	25.888	0.038627	396.82	435.27	2.0498	0.67983	1.0310	223.51	21.572	11.731	0.012727
232.94	0.99680	1117.2	0.00089506	111.59	112.48	0.66386	0.95313	2.0106	857.81	-0.071074	193.35	0.15700	0.012728	25.924	0.038575	396.83	435.28	2.0496	0.67996	1.0314	223.50	21.562	11.733	0.012731
232.98	0.99818	1117.1	0.00089518	111.66	112.56	0.66418	0.95309	2.0108	857.54	-0.070861	193.23	0.15695	0.012719	25.959	0.038522	396.83	435.29	2.0494	0.68009	1.0317	223.50	21.553	11.735	0.012735
233.02	0.99956	1117.0	0.00089530	111.74	112.63	0.66450	0.95304	2.0110	857.27	-0.070648	193.11	0.15690	0.012711	25.994	0.038470	396.84	435.29	2.0492	0.68022	1.0320	223.50	21.544	11.737	0.012739
233.05	1.0009	1116.8	0.00089541	111.81	112.71	0.66482	0.95300	2.0112	857.00	-0.070435	192.99	0.15686	0.012702	26.030	0.038417	396.85	435.30	2.0490	0.68035	1.0324	223.50	21.535	11.739	0.012743
233.09	1.0023	1116.7	0.00089553	111.89	112.78	0.66514	0.95296	2.0114	856.73	-0.070222	192.88	0.15681	0.012694	26.065	0.038365	396.86	435.31	2.0488	0.68048	1.0327	223.50	21.527	11.741	0.012748
233.13	1.0037	1116.5	0.00089565	111.96	112.86	0.66546	0.95291	2.0116	856.46	-0.070010	192.76	0.15677	0.012686	26.101	0.038313	396.86	435.32	2.0486	0.68061	1.0331	223.50	21.518	11.743	0.012752
233.17	1.0051	1116.4	0.00089577	112.04	112.94	0.66577	0.95287	2.0117	856.18	-0.069797	192.64	0.15672	0.012677	26.136	0.038261	396.87	435.33	2.0484	0.68074	1.0334	223.50	21.509	11.745	0.012756
233.20	1.0065	1116.2	0.00089588	112.11	113.01	0.66609	0.95282	2.0119	855.91	-0.069584	192.52	0.15668	0.012669	26.171	0.038210	396.88	435.33	2.0482	0.68087	1.0338	223.49	21.500	11.747	0.012760
233.24	1.0079	1116.1	0.00089600	112.18	113.09	0.66641	0.95278	2.0121	855.64	-0.069371	192.41	0.15663	0.012660	26.207	0.038158	396.88	435.34	2.0481	0.68099	1.0341	223.49	21.491	11.749	0.012764
233.28	1.0092	1115.9	0.00089612	112.26	113.16	0.66673	0.95274	2.0123	855.37	-0.069158	192.29	0.15659	0.012652	26.242	0.038106	396.89	435.35	2.0479	0.68112	1.0345	223.49	21.482	11.751	0.012768
233.32	1.0106	1115.8	0.00089624	112.33	113.24	0.66704	0.95269	2.0125	855.10	-0.068945	192.18	0.15654	0.012644	26.278	0.038055	396.90	435.36	2.0477	0.68125	1.0348	223.49	21.473	11.753	0.012773
233.35	1.0120	1115.6	0.00089636	112.40	113.31	0.66736	0.95265	2.0127	854.83	-0.068732	192.06	0.15650	0.012635	26.313	0.038004	396.90	435.36	2.0475	0.68138	1.0352	223.49	21.464	11.755	0.012777
233.39	1.0134	1115.5	0.00089647	112.48	113.39	0.66768	0.95261	2.0129	854.56	-0.068519	191.94	0.15645	0.012627	26.349	0.037953	396.91	435.37	2.0473	0.68151	1.0355	223.49	21.455	11.757	0.012781
233.43	1.0148	1115.3	0.00089659	112.55	113.46	0.66799	0.95256	2.0130	854.30	-0.068306	191.83	0.15641	0.012619	26.384	0.037902	396.92	435.38	2.0471	0.68164	1.0359	223.48	21.446	11.759	0.012785
233.46	1.0162	1115.2	0.00089671	112.62	113.54	0.66831	0.95252	2.0132	854.03	-0.068093	191.71	0.15636	0.012610	26.419	0.037851	396.93	435.39	2.0469	0.68177	1.0362	223.48	21.438	11.761	0.012789
233.50	1.0175	1115.0	0.00089683	112.70	113.61	0.66862	0.95248	2.0134	853.76	-0.067880	191.60	0.15632	0.012602	26.455	0.037800	396.93	435.40	2.0467	0.68189	1.0366	223.48	21.429	11.763	0.012793
233.54	1.0189	1114.9	0.00089694	112.77	113.69	0.66894	0.95243	2.0136	853.49	-0.067667	191.48	0.15627	0.012594	26.490	0.037750	396.94	435.40	2.0465	0.68202	1.0369	223.48	21.420	11.765	0.012798
233.57	1.0203	1114.8	0.00089706	112.85	113.76	0.66925	0.95239	2.0138	853.22	-0.067454	191.37	0.15623	0.012586	26.526	0.037699	396.95	435.41	2.0463	0.68215	1.0372	223.48	21.411	11.767	0.012802
233.61	1.0217	1114.6	0.00089718	112.92	113.83	0.66956	0.95235	2.0140	852.95	-0.067241	191.25	0.15618	0.012577	26.561	0.037649	396.95	435.42	2.0461	0.68228	1.0376	223.48	21.402	11.769	0.012806
233.65	1.0231	1114.5	0.00089729	112.99	113.91	0.66988	0.95231	2.0142	852.69	-0.067027	191.14	0.15614	0.012569	26.597	0.037599	396.96	435.43	2.0459	0.68241	1.0379	223.47	21.394	11.771	0.012810
233.69	1.0245	1114.3	0.00089741	113.06	113.98	0.67019	0.95226	2.0144	852.42	-0.066814	191.02	0.15609	0.012561	26.632	0.037549	396.97	435.43	2.0458	0.68253	1.0383	223.47	21.385	11.773	0.012814
233.72	1.0258	1114.2	0.00089753	113.14	114.06	0.67050	0.95222	2.0145	852.15	-0.066601	190.91	0.15605	0.012553	26.667	0.037499	396.97	435.44	2.0456	0.68266	1.0386	223.47	21.376	11.775	0.012818
233.76	1.0272	1114.0	0.00089765	113.21	114.13	0.67082	0.95218	2.0147	851.88	-0.066388	190.79	0.15600	0.012544	26.703	0.037449	396.98	435.45	2.0454	0.68279	1.0390	223.47	21.367	11.777	0.012823
233.80	1.0286	1113.9	0.00089776	113.28	114.21	0.67113	0.95214	2.0149	851.62	-0.066174	190.68	0.15596	0.012536	26.738	0.037399	396.99	435.46	2.0452	0.68292	1.0393	223.47	21.359	11.779	0.012827
233.83	1.0300	1113.7	0.00089788	113.36	114.28	0.67144	0.95209	2.0151	851.35	-0.065961	190.57	0.15591	0.012528	26.774	0.037350	396.99	435.46	2.0450	0.68305	1.0397	223.47	21.350	11.781	0.012831
233.87	1.0314	1113.6	0.00089800	113.43	114.35	0.67175	0.95205	2.0153	851.09	-0.065748	190.45	0.15587	0.012520	26.809	0.037301	397.00	435.47	2.0448	0.68317	1.0400	223.46	21.341	11.783	0.012835
233.91	1.0328	1113.4	0.00089811	113.50	114.43	0.67206	0.95201	2.0155	850.82	-0.065534	190.34	0.15583	0.012512	26.845	0.037251	397.01	435.48	2.0446	0.68330	1.0404	223.46	21.333	11.785	0.012839
233.94	1.0341	1113.3	0.00089823	113.57	114.50	0.67237	0.95197	2.0157	850.55	-0.065321	190.23	0.15578	0.012503	26.880	0.037202	397.01	435.49	2.0444	0.68343	1.0407	223.46	21.324	11.787	0.012843
233.98	1.0355	1113.2	0.00089835	113.65	114.58	0.67269	0.95192	2.0159	850.29	-0.065107	190.11	0.15574	0.012495	26.916	0.037153	397.02	435.49	2.0442	0.68356	1.0411	223.46	21.316	11.789	0.012847
234.02	1.0369	1113.0	0.00089846	113.72	114.65	0.67300	0.95188	2.0160	850.02	-0.064894	190.00	0.15569	0.012487	26.951	0.037104	397.03	435.50	2.0441	0.68368	1.0414	223.46	21.307	11.791	0.012852
234.05	1.0383	1112.9	0.00089858	113.79	114.72	0.67331	0.95184	2.0162	849.76	-0.064681	189.89	0.15565	0.012479	26.987	0.037056	397.03	435.51	2.0439	0.68381	1.0417	223.45	21.298	11.793	0.012856
