Temperature (K)	Pressure (MPa)	Density (l, kg/m3)	Volume (l, m3/kg)	Internal Energy (l, kJ/kg)	Enthalpy (l, kJ/kg)	Entropy (l, J/g*K)	Cv (l, J/g*K)	Cp (l, J/g*K)	Sound Spd. (l, m/s)	Joule-Thomson (l, K/MPa)	Viscosity (l, uPa*s)	Therm. Cond. (l, W/m*K)	Surf. Tension (l, N/m)	Density (v, kg/m3)	Volume (v, m3/kg)	Internal Energy (v, kJ/kg)	Enthalpy (v, kJ/kg)	Entropy (v, J/g*K)	Cv (v, J/g*K)	Cp (v, J/g*K)	Sound Spd. (v, m/s)	Joule-Thomson (v, K/MPa)	Viscosity (v, uPa*s)	Therm. Cond. (v, W/m*K)
248.18	0.10655	1373.4	0.00072814	167.15	167.23	0.87476	0.84941	1.2828	736.83	-0.25717	372.76	0.10339	0.015030	5.5133	0.18138	364.14	383.47	1.7461	0.69132	0.79802	145.79	45.285	9.8193	0.0094047
248.45	0.10785	1372.5	0.00072857	167.49	167.57	0.87614	0.84972	1.2833	735.58	-0.25642	371.33	0.10326	0.014990	5.5767	0.17932	364.30	383.64	1.7458	0.69203	0.79896	145.82	45.113	9.8290	0.0094269
248.72	0.10915	1371.7	0.00072900	167.84	167.91	0.87752	0.85002	1.2838	734.35	-0.25568	369.93	0.10314	0.014951	5.6401	0.17730	364.45	383.80	1.7455	0.69274	0.79989	145.85	44.943	9.8387	0.0094489
248.98	0.11045	1370.9	0.00072942	168.17	168.25	0.87887	0.85032	1.2844	733.13	-0.25494	368.55	0.10301	0.014912	5.7035	0.17533	364.60	383.97	1.7453	0.69344	0.80082	145.88	44.776	9.8482	0.0094706
249.24	0.11175	1370.2	0.00072984	168.51	168.59	0.88022	0.85062	1.2849	731.91	-0.25421	367.18	0.10289	0.014873	5.7668	0.17341	364.75	384.13	1.7450	0.69414	0.80174	145.90	44.611	9.8577	0.0094922
249.50	0.11305	1369.4	0.00073026	168.84	168.92	0.88155	0.85091	1.2854	730.71	-0.25347	365.84	0.10277	0.014835	5.8301	0.17152	364.90	384.29	1.7447	0.69483	0.80265	145.93	44.449	9.8671	0.0095136
249.75	0.11435	1368.6	0.00073067	169.17	169.25	0.88286	0.85121	1.2860	729.53	-0.25274	364.52	0.10265	0.014797	5.8934	0.16968	365.04	384.45	1.7445	0.69551	0.80356	145.96	44.289	9.8764	0.0095348
250.01	0.11566	1367.8	0.00073108	169.49	169.58	0.88417	0.85150	1.2865	728.35	-0.25202	363.21	0.10253	0.014760	5.9566	0.16788	365.19	384.61	1.7443	0.69619	0.80446	145.98	44.132	9.8856	0.0095558
250.26	0.11696	1367.1	0.00073149	169.82	169.90	0.88546	0.85178	1.2870	727.18	-0.25130	361.92	0.10241	0.014723	6.0199	0.16612	365.33	384.76	1.7440	0.69686	0.80535	146.01	43.977	9.8947	0.0095766
250.51	0.11826	1366.3	0.00073190	170.14	170.22	0.88674	0.85207	1.2875	726.02	-0.25058	360.65	0.10230	0.014686	6.0830	0.16439	365.48	384.92	1.7438	0.69753	0.80624	146.03	43.824	9.9038	0.0095973
250.76	0.11956	1365.6	0.00073230	170.46	170.54	0.88801	0.85235	1.2880	724.87	-0.24986	359.40	0.10218	0.014649	6.1462	0.16270	365.62	385.07	1.7435	0.69819	0.80713	146.06	43.674	9.9128	0.0096178
251.00	0.12086	1364.8	0.00073270	170.77	170.86	0.88927	0.85263	1.2885	723.74	-0.24915	358.16	0.10207	0.014613	6.2093	0.16105	365.76	385.22	1.7433	0.69885	0.80801	146.08	43.526	9.9216	0.0096381
251.25	0.12216	1364.1	0.00073310	171.08	171.17	0.89051	0.85291	1.2890	722.61	-0.24844	356.94	0.10195	0.014578	6.2724	0.15943	365.90	385.37	1.7431	0.69950	0.80888	146.11	43.379	9.9305	0.0096583
251.49	0.12346	1363.3	0.00073349	171.39	171.48	0.89175	0.85319	1.2895	721.49	-0.24773	355.74	0.10184	0.014542	6.3355	0.15784	366.04	385.52	1.7428	0.70015	0.80975	146.13	43.235	9.9392	0.0096782
251.73	0.12476	1362.6	0.00073388	171.70	171.79	0.89297	0.85347	1.2900	720.38	-0.24703	354.55	0.10173	0.014507	6.3985	0.15629	366.17	385.67	1.7426	0.70079	0.81061	146.15	43.093	9.9479	0.0096981
251.96	0.12606	1361.9	0.00073427	172.01	172.10	0.89418	0.85374	1.2905	719.29	-0.24633	353.38	0.10162	0.014472	6.4616	0.15476	366.31	385.82	1.7424	0.70143	0.81147	146.17	42.952	9.9565	0.0097178
252.20	0.12736	1361.2	0.00073466	172.31	172.40	0.89539	0.85401	1.2910	718.20	-0.24563	352.22	0.10151	0.014438	6.5245	0.15327	366.44	385.96	1.7422	0.70207	0.81232	146.20	42.814	9.9650	0.0097373
252.43	0.12866	1360.5	0.00073504	172.61	172.71	0.89658	0.85428	1.2915	717.11	-0.24493	351.08	0.10140	0.014403	6.5875	0.15180	366.58	386.11	1.7420	0.70270	0.81317	146.22	42.677	9.9735	0.0097567
252.66	0.12996	1359.8	0.00073543	172.91	173.01	0.89776	0.85455	1.2920	716.04	-0.24424	349.95	0.10130	0.014369	6.6504	0.15037	366.71	386.25	1.7418	0.70332	0.81401	146.24	42.542	9.9818	0.0097759
252.89	0.13126	1359.1	0.00073581	173.21	173.30	0.89893	0.85481	1.2925	714.98	-0.24355	348.83	0.10119	0.014336	6.7134	0.14896	366.84	386.39	1.7416	0.70394	0.81485	146.26	42.409	9.9902	0.0097950
253.12	0.13256	1358.4	0.00073618	173.50	173.60	0.90009	0.85507	1.2930	713.92	-0.24286	347.73	0.10108	0.014302	6.7763	0.14757	366.97	386.54	1.7413	0.70456	0.81569	146.28	42.278	9.9984	0.0098140
253.35	0.13387	1357.7	0.00073656	173.79	173.89	0.90125	0.85534	1.2935	712.88	-0.24218	346.64	0.10098	0.014269	6.8391	0.14622	367.10	386.68	1.7411	0.70517	0.81652	146.30	42.148	10.007	0.0098328
253.57	0.13517	1357.0	0.00073693	174.08	174.18	0.90239	0.85560	1.2939	711.84	-0.24150	345.56	0.10087	0.014236	6.9020	0.14489	367.23	386.81	1.7409	0.70578	0.81734	146.32	42.020	10.015	0.0098514
253.79	0.13647	1356.3	0.00073730	174.37	174.47	0.90352	0.85585	1.2944	710.81	-0.24082	344.50	0.10077	0.014204	6.9648	0.14358	367.36	386.95	1.7407	0.70638	0.81816	146.33	41.894	10.023	0.0098700
254.01	0.13777	1355.6	0.00073767	174.65	174.76	0.90465	0.85611	1.2949	709.78	-0.24014	343.45	0.10067	0.014171	7.0276	0.14230	367.48	387.09	1.7406	0.70698	0.81898	146.35	41.769	10.031	0.0098884
254.23	0.13907	1354.9	0.00073804	174.94	175.04	0.90577	0.85637	1.2954	708.77	-0.23946	342.41	0.10057	0.014139	7.0904	0.14104	367.61	387.22	1.7404	0.70758	0.81979	146.37	41.646	10.039	0.0099067
254.45	0.14037	1354.3	0.00073840	175.22	175.32	0.90687	0.85662	1.2958	707.76	-0.23879	341.38	0.10047	0.014107	7.1531	0.13980	367.73	387.36	1.7402	0.70817	0.82060	146.39	41.524	10.047	0.0099248
254.67	0.14167	1353.6	0.00073877	175.50	175.60	0.90797	0.85687	1.2963	706.76	-0.23812	340.36	0.10037	0.014076	7.2159	0.13858	367.86	387.49	1.7400	0.70876	0.82140	146.41	41.404	10.054	0.0099428
254.88	0.14297	1352.9	0.00073913	175.78	175.88	0.90906	0.85712	1.2968	705.77	-0.23745	339.36	0.10027	0.014044	7.2786	0.13739	367.98	387.62	1.7398	0.70934	0.82220	146.42	41.285	10.062	0.0099607
255.10	0.14427	1352.3	0.00073949	176.05	176.16	0.91015	0.85737	1.2972	704.78	-0.23679	338.37	0.10017	0.014013	7.3413	0.13622	368.10	387.75	1.7396	0.70992	0.82300	146.44	41.167	10.070	0.0099785
255.31	0.14557	1351.6	0.00073984	176.33	176.44	0.91122	0.85761	1.2977	703.80	-0.23612	337.38	0.10007	0.013982	7.4039	0.13506	368.22	387.88	1.7394	0.71050	0.82379	146.45	41.051	10.078	0.0099962
255.52	0.14687	1351.0	0.00074020	176.60	176.71	0.91229	0.85786	1.2981	702.83	-0.23546	336.41	0.099975	0.013952	7.4666	0.13393	368.34	388.01	1.7393	0.71108	0.82458	146.47	40.936	10.085	0.010014
255.73	0.14817	1350.3	0.00074055	176.87	176.98	0.91334	0.85810	1.2986	701.87	-0.23480	335.45	0.099879	0.013921	7.5292	0.13282	368.46	388.14	1.7391	0.71165	0.82536	146.49	40.823	10.093	0.010031
255.93	0.14947	1349.7	0.00074090	177.14	177.25	0.91439	0.85835	1.2991	700.91	-0.23414	334.50	0.099784	0.013891	7.5918	0.13172	368.58	388.27	1.7389	0.71221	0.82614	146.50	40.711	10.100	0.010048
256.14	0.15077	1349.1	0.00074125	177.41	177.52	0.91544	0.85859	1.2995	699.96	-0.23349	333.56	0.099689	0.013861	7.6544	0.13064	368.70	388.40	1.7387	0.71278	0.82692	146.52	40.600	10.108	0.010066
256.34	0.15208	1348.4	0.00074160	177.67	177.78	0.91647	0.85883	1.3000	699.01	-0.23283	332.63	0.099595	0.013831	7.7170	0.12958	368.82	388.52	1.7386	0.71334	0.82769	146.53	40.490	10.115	0.010083
256.55	0.15338	1347.8	0.00074195	177.93	178.05	0.91750	0.85906	1.3004	698.07	-0.23218	331.71	0.099502	0.013802	7.7796	0.12854	368.93	388.65	1.7384	0.71389	0.82846	146.54	40.382	10.123	0.010100
256.75	0.15468	1347.2	0.00074229	178.20	178.31	0.91852	0.85930	1.3009	697.14	-0.23153	330.80	0.099409	0.013772	7.8421	0.12752	369.05	388.77	1.7382	0.71445	0.82922	146.56	40.275	10.130	0.010117
256.95	0.15598	1346.6	0.00074263	178.46	178.57	0.91953	0.85953	1.3013	696.22	-0.23088	329.89	0.099317	0.013743	7.9046	0.12651	369.16	388.89	1.7381	0.71500	0.82999	146.57	40.169	10.137	0.010133
257.15	0.15728	1345.9	0.00074297	178.72	178.83	0.92054	0.85977	1.3017	695.30	-0.23024	329.00	0.099225	0.013714	7.9671	0.12552	369.27	389.02	1.7379	0.71554	0.83075	146.58	40.064	10.144	0.010150
257.35	0.15858	1345.3	0.00074331	178.97	179.09	0.92154	0.86000	1.3022	694.38	-0.22959	328.12	0.099135	0.013685	8.0296	0.12454	369.39	389.14	1.7377	0.71609	0.83150	146.60	39.960	10.151	0.010167
257.54	0.15988	1344.7	0.00074365	179.23	179.35	0.92253	0.86023	1.3026	693.47	-0.22895	327.24	0.099044	0.013657	8.0921	0.12358	369.50	389.26	1.7376	0.71663	0.83225	146.61	39.858	10.159	0.010183
257.74	0.16118	1344.1	0.00074399	179.48	179.60	0.92352	0.86046	1.3031	692.57	-0.22831	326.38	0.098955	0.013628	8.1545	0.12263	369.61	389.38	1.7374	0.71717	0.83300	146.62	39.756	10.166	0.010200
257.93	0.16248	1343.5	0.00074432	179.73	179.86	0.92450	0.86069	1.3035	691.68	-0.22767	325.52	0.098866	0.013600	8.2170	0.12170	369.72	389.50	1.7373	0.71770	0.83375	146.64	39.656	10.173	0.010216
258.13	0.16378	1342.9	0.00074465	179.99	180.11	0.92547	0.86092	1.3039	690.78	-0.22703	324.67	0.098778	0.013572	8.2794	0.12078	369.83	389.61	1.7371	0.71823	0.83449	146.65	39.556	10.180	0.010232
258.32	0.16508	1342.3	0.00074499	180.23	180.36	0.92644	0.86114	1.3044	689.90	-0.22640	323.83	0.098690	0.013544	8.3418	0.11988	369.94	389.73	1.7370	0.71876	0.83523	146.66	39.458	10.187	0.010248
258.51	0.16638	1341.7	0.00074531	180.48	180.61	0.92740	0.86137	1.3048	689.02	-0.22576	322.99	0.098603	0.013517	8.4042	0.11899	370.05	389.85	1.7368	0.71929	0.83597	146.67	39.361	10.194	0.010264
258.70	0.16768	1341.1	0.00074564	180.73	180.85	0.92835	0.86159	1.3052	688.15	-0.22513	322.17	0.098516	0.013489	8.4666	0.11811	370.16	389.96	1.7367	0.71981	0.83670	146.68	39.264	10.200	0.010280
258.89	0.16898	1340.5	0.00074597	180.97	181.10	0.92930	0.86181	1.3056	687.28	-0.22450	321.35	0.098430	0.013462	8.5290	0.11725	370.26	390.08	1.7365	0.72033	0.83743	146.69	39.169	10.207	0.010296
259.07	0.17029	1340.0	0.00074630	181.22	181.35	0.93024	0.86203	1.3061	686.41	-0.22387	320.54	0.098344	0.013435	8.5913	0.11640	370.37	390.19	1.7364	0.72085	0.83816	146.70	39.075	10.214	0.010312
259.26	0.17159	1339.4	0.00074662	181.46	181.59	0.93117	0.86225	1.3065	685.56	-0.22325	319.74	0.098259	0.013408	8.6536	0.11556	370.48	390.31	1.7362	0.72137	0.83888	146.71	38.981	10.221	0.010327
259.44	0.17289	1338.8	0.00074694	181.70	181.83	0.93210	0.86247	1.3069	684.70	-0.22262	318.94	0.098175	0.013381	8.7160	0.11473	370.58	390.42	1.7361	0.72188	0.83960	146.72	38.889	10.227	0.010343
259.63	0.17419	1338.2	0.00074726	181.94	182.07	0.93303	0.86269	1.3073	683.85	-0.22200	318.15	0.098091	0.013354	8.7783	0.11392	370.69	390.53	1.7359	0.72239	0.84032	146.73	38.797	10.234	0.010358
259.81	0.17549	1337.6	0.00074758	182.18	182.31	0.93395	0.86291	1.3077	683.01	-0.22137	317.37	0.098008	0.013328	8.8406	0.11311	370.79	390.64	1.7358	0.72290	0.84104	146.74	38.706	10.241	0.010374
259.99	0.17679	1337.1	0.00074790	182.42	182.55	0.93486	0.86312	1.3082	682.17	-0.22075	316.60	0.097925	0.013302	8.9029	0.11232	370.89	390.75	1.7357	0.72340	0.84175	146.75	38.616	10.247	0.010389
260.17	0.17809	1336.5	0.00074822	182.65	182.79	0.93577	0.86334	1.3086	681.34	-0.22013	315.83	0.097843	0.013276	8.9651	0.11154	371.00	390.86	1.7355	0.72390	0.84246	146.76	38.527	10.254	0.010404
260.35	0.17939	1335.9	0.00074853	182.89	183.02	0.93667	0.86355	1.3090	680.51	-0.21951	315.07	0.097761	0.013250	9.0274	0.11077	371.10	390.97	1.7354	0.72440	0.84317	146.77	38.439	10.260	0.010419
260.53	0.18069	1335.4	0.00074885	183.12	183.26	0.93756	0.86376	1.3094	679.69	-0.21890	314.32	0.097679	0.013224	9.0896	0.11002	371.20	391.08	1.7353	0.72490	0.84387	146.78	38.352	10.267	0.010434
260.71	0.18199	1334.8	0.00074916	183.35	183.49	0.93845	0.86397	1.3098	678.87	-0.21828	313.57	0.097599	0.013198	9.1519	0.10927	371.30	391.19	1.7351	0.72539	0.84457	146.79	38.265	10.273	0.010449
260.89	0.18329	1334.3	0.00074947	183.58	183.72	0.93934	0.86418	1.3102	678.06	-0.21767	312.83	0.097518	0.013173	9.2141	0.10853	371.40	391.29	1.7350	0.72589	0.84527	146.79	38.180	10.280	0.010464
261.06	0.18459	1333.7	0.00074978	183.81	183.95	0.94022	0.86439	1.3106	677.25	-0.21705	312.10	0.097438	0.013147	9.2763	0.10780	371.50	391.40	1.7349	0.72638	0.84597	146.80	38.095	10.286	0.010479
261.24	0.18589	1333.2	0.00075009	184.04	184.18	0.94109	0.86460	1.3110	676.44	-0.21644	311.37	0.097359	0.013122	9.3385	0.10708	371.60	391.51	1.7347	0.72686	0.84667	146.81	38.011	10.292	0.010494
261.41	0.18719	1332.6	0.00075040	184.27	184.41	0.94196	0.86481	1.3115	675.64	-0.21583	310.65	0.097280	0.013097	9.4007	0.10638	371.70	391.61	1.7346	0.72735	0.84736	146.82	37.927	10.299	0.010508
261.58	0.18850	1332.1	0.00075071	184.49	184.64	0.94283	0.86501	1.3119	674.84	-0.21522	309.93	0.097201	0.013072	9.4629	0.10568	371.80	391.72	1.7345	0.72783	0.84805	146.83	37.845	10.305	0.010523
261.76	0.18980	1331.5	0.00075101	184.72	184.86	0.94369	0.86522	1.3123	674.05	-0.21462	309.22	0.097123	0.013048	9.5250	0.10499	371.90	391.82	1.7343	0.72831	0.84873	146.83	37.763	10.311	0.010537
261.93	0.19110	1331.0	0.00075132	184.94	185.09	0.94454	0.86542	1.3127	673.26	-0.21401	308.52	0.097046	0.013023	9.5872	0.10431	371.99	391.93	1.7342	0.72879	0.84942	146.84	37.682	10.317	0.010552
262.10	0.19240	1330.5	0.00075162	185.17	185.31	0.94539	0.86562	1.3131	672.48	-0.21341	307.82	0.096968	0.012998	9.6493	0.10363	372.09	392.03	1.7341	0.72927	0.85010	146.85	37.601	10.323	0.010566
262.27	0.19370	1329.9	0.00075192	185.39	185.53	0.94624	0.86583	1.3135	671.70	-0.21280	307.13	0.096892	0.012974	9.7115	0.10297	372.19	392.13	1.7340	0.72974	0.85078	146.85	37.522	10.330	0.010581
262.43	0.19500	1329.4	0.00075222	185.61	185.75	0.94708	0.86603	1.3139	670.92	-0.21220	306.44	0.096815	0.012950	9.7736	0.10232	372.28	392.23	1.7339	0.73021	0.85146	146.86	37.443	10.336	0.010595
262.60	0.19630	1328.9	0.00075252	185.83	185.97	0.94791	0.86623	1.3143	670.15	-0.21160	305.76	0.096740	0.012926	9.8357	0.10167	372.38	392.33	1.7337	0.73068	0.85213	146.87	37.365	10.342	0.010609
262.77	0.19760	1328.3	0.00075282	186.05	186.19	0.94875	0.86643	1.3147	669.39	-0.21100	305.09	0.096664	0.012902	9.8978	0.10103	372.47	392.43	1.7336	0.73115	0.85280	146.87	37.287	10.348	0.010623
262.93	0.19890	1327.8	0.00075312	186.26	186.41	0.94957	0.86663	1.3150	668.62	-0.21040	304.42	0.096589	0.012878	9.9599	0.10040	372.56	392.53	1.7335	0.73161	0.85348	146.88	37.210	10.354	0.010637
263.10	0.20020	1327.3	0.00075342	186.48	186.63	0.95039	0.86682	1.3154	667.86	-0.20980	303.75	0.096514	0.012854	10.022	0.099781	372.66	392.63	1.7334	0.73208	0.85414	146.88	37.134	10.360	0.010651
263.26	0.20150	1326.8	0.00075371	186.69	186.85	0.95121	0.86702	1.3158	667.11	-0.20920	303.09	0.096440	0.012831	10.084	0.099166	372.75	392.73	1.7333	0.73254	0.85481	146.89	37.058	10.366	0.010665
263.43	0.20280	1326.2	0.00075401	186.91	187.06	0.95203	0.86722	1.3162	666.36	-0.20861	302.44	0.096366	0.012807	10.146	0.098560	372.84	392.83	1.7332	0.73300	0.85547	146.89	36.983	10.372	0.010679
263.59	0.20410	1325.7	0.00075430	187.12	187.28	0.95284	0.86741	1.3166	665.61	-0.20801	301.79	0.096293	0.012784	10.208	0.097960	372.94	392.93	1.7330	0.73345	0.85614	146.90	36.909	10.378	0.010693
263.75	0.20540	1325.2	0.00075459	187.33	187.49	0.95364	0.86760	1.3170	664.86	-0.20742	301.15	0.096220	0.012761	10.270	0.097369	373.03	393.03	1.7329	0.73391	0.85680	146.91	36.835	10.383	0.010706
263.91	0.20671	1324.7	0.00075488	187.54	187.70	0.95444	0.86780	1.3174	664.12	-0.20683	300.51	0.096147	0.012738	10.332	0.096784	373.12	393.12	1.7328	0.73436	0.85745	146.91	36.762	10.389	0.010720
264.07	0.20801	1324.2	0.00075517	187.76	187.91	0.95524	0.86799	1.3178	663.39	-0.20624	299.87	0.096075	0.012715	10.394	0.096206	373.21	393.22	1.7327	0.73481	0.85811	146.91	36.690	10.395	0.010734
264.23	0.20931	1323.7	0.00075546	187.96	188.12	0.95603	0.86818	1.3182	662.65	-0.20565	299.24	0.096003	0.012692	10.456	0.095636	373.30	393.32	1.7326	0.73526	0.85876	146.92	36.618	10.401	0.010747
264.39	0.21061	1323.2	0.00075575	188.17	188.33	0.95682	0.86837	1.3185	661.92	-0.20506	298.62	0.095931	0.012669	10.518	0.095072	373.39	393.41	1.7325	0.73571	0.85941	146.92	36.546	10.407	0.010761
264.55	0.21191	1322.7	0.00075604	188.38	188.54	0.95760	0.86856	1.3189	661.20	-0.20447	298.00	0.095860	0.012647	10.580	0.094514	373.48	393.51	1.7324	0.73615	0.86006	146.93	36.476	10.412	0.010774
264.70	0.21321	1322.2	0.00075632	188.59	188.75	0.95838	0.86875	1.3193	660.47	-0.20388	297.38	0.095789	0.012624	10.642	0.093964	373.57	393.60	1.7323	0.73660	0.86071	146.93	36.405	10.418	0.010787
264.86	0.21451	1321.7	0.00075661	188.79	188.95	0.95916	0.86894	1.3197	659.76	-0.20330	296.77	0.095719	0.012602	10.704	0.093420	373.65	393.69	1.7322	0.73704	0.86135	146.94	36.336	10.424	0.010801
265.02	0.21581	1321.2	0.00075689	189.00	189.16	0.95993	0.86913	1.3201	659.04	-0.20271	296.17	0.095649	0.012580	10.766	0.092882	373.74	393.79	1.7321	0.73748	0.86200	146.94	36.267	10.429	0.010814
265.17	0.21711	1320.7	0.00075718	189.20	189.36	0.96070	0.86931	1.3204	658.33	-0.20213	295.56	0.095579	0.012558	10.828	0.092350	373.83	393.88	1.7320	0.73792	0.86264	146.94	36.198	10.435	0.010827
265.33	0.21841	1320.2	0.00075746	189.40	189.57	0.96147	0.86950	1.3208	657.62	-0.20155	294.97	0.095509	0.012536	10.890	0.091824	373.92	393.97	1.7319	0.73835	0.86328	146.95	36.130	10.441	0.010840
265.48	0.21971	1319.7	0.00075774	189.61	189.77	0.96223	0.86969	1.3212	656.91	-0.20096	294.37	0.095440	0.012514	10.952	0.091305	374.00	394.06	1.7318	0.73879	0.86392	146.95	36.063	10.446	0.010853
265.63	0.22101	1319.2	0.00075802	189.81	189.97	0.96298	0.86987	1.3216	656.21	-0.20038	293.78	0.095372	0.012492	11.014	0.090791	374.09	394.16	1.7317	0.73922	0.86455	146.95	35.996	10.452	0.010866
265.78	0.22231	1318.7	0.00075830	190.01	190.18	0.96374	0.87005	1.3220	655.51	-0.19980	293.20	0.095303	0.012470	11.076	0.090283	374.18	394.25	1.7316	0.73965	0.86519	146.96	35.929	10.457	0.010879
265.93	0.22361	1318.2	0.00075858	190.21	190.38	0.96449	0.87024	1.3223	654.81	-0.19922	292.62	0.095235	0.012449	11.138	0.089781	374.26	394.34	1.7315	0.74008	0.86582	146.96	35.864	10.463	0.010892
266.09	0.22492	1317.8	0.00075886	190.40	190.57	0.96523	0.87042	1.3227	654.12	-0.19864	292.04	0.095167	0.012427	11.200	0.089285	374.35	394.43	1.7314	0.74051	0.86645	146.96	35.798	10.468	0.010905
266.24	0.22622	1317.3	0.00075914	190.60	190.77	0.96598	0.87060	1.3231	653.43	-0.19807	291.47	0.095100	0.012406	11.262	0.088793	374.43	394.52	1.7313	0.74094	0.86708	146.96	35.733	10.474	0.010918
266.38	0.22752	1316.8	0.00075941	190.80	190.97	0.96672	0.87078	1.3234	652.74	-0.19749	290.90	0.095033	0.012384	11.324	0.088308	374.52	394.61	1.7312	0.74136	0.86770	146.97	35.669	10.479	0.010931
266.53	0.22882	1316.3	0.00075969	190.99	191.17	0.96745	0.87096	1.3238	652.06	-0.19691	290.33	0.094966	0.012363	11.386	0.087828	374.60	394.70	1.7311	0.74178	0.86833	146.97	35.605	10.484	0.010943
266.68	0.23012	1315.9	0.00075996	191.19	191.36	0.96819	0.87114	1.3242	651.38	-0.19634	289.77	0.094900	0.012342	11.448	0.087352	374.68	394.78	1.7310	0.74220	0.86895	146.97	35.542	10.490	0.010956
266.83	0.23142	1315.4	0.00076024	191.38	191.56	0.96891	0.87132	1.3245	650.70	-0.19576	289.22	0.094833	0.012321	11.510	0.086883	374.77	394.87	1.7309	0.74262	0.86957	146.97	35.479	10.495	0.010969
266.98	0.23272	1314.9	0.00076051	191.58	191.76	0.96964	0.87150	1.3249	650.03	-0.19519	288.66	0.094768	0.012300	11.572	0.086418	374.85	394.96	1.7308	0.74304	0.87019	146.97	35.416	10.501	0.010981
267.12	0.23402	1314.4	0.00076078	191.77	191.95	0.97036	0.87168	1.3253	649.36	-0.19462	288.11	0.094702	0.012279	11.634	0.085958	374.93	395.05	1.7307	0.74346	0.87081	146.98	35.354	10.506	0.010994
267.27	0.23532	1314.0	0.00076105	191.96	192.14	0.97108	0.87185	1.3256	648.69	-0.19405	287.57	0.094637	0.012259	11.696	0.085503	375.01	395.13	1.7306	0.74387	0.87143	146.98	35.293	10.511	0.011006
