Temperature (K)	Pressure (MPa)	Density (l, kg/m3)	Volume (l, m3/kg)	Internal Energy (l, kJ/kg)	Enthalpy (l, kJ/kg)	Entropy (l, J/g*K)	Cv (l, J/g*K)	Cp (l, J/g*K)	Sound Spd. (l, m/s)	Joule-Thomson (l, K/MPa)	Viscosity (l, uPa*s)	Therm. Cond. (l, W/m*K)	Surf. Tension (l, N/m)	Density (v, kg/m3)	Volume (v, m3/kg)	Internal Energy (v, kJ/kg)	Enthalpy (v, kJ/kg)	Entropy (v, J/g*K)	Cv (v, J/g*K)	Cp (v, J/g*K)	Sound Spd. (v, m/s)	Joule-Thomson (v, K/MPa)	Viscosity (v, uPa*s)	Therm. Cond. (v, W/m*K)
178.78	0.0010000	1567.5	0.00063797	82.036	82.037	0.47333	0.79105	1.1864	1074.5	-0.37478	1539.2	0.13986	0.025905	0.068761	14.543	325.61	340.16	1.9171	0.52387	0.60676	129.67	246.85	7.1838	0.0037958
180.42	0.0011750	1563.1	0.00063975	83.985	83.986	0.48418	0.79132	1.1874	1066.2	-0.37331	1459.1	0.13888	0.025635	0.080075	12.488	326.46	341.13	1.9094	0.52771	0.61072	130.19	230.33	7.2487	0.0039274
181.87	0.0013500	1559.3	0.00064133	85.699	85.700	0.49365	0.79165	1.1883	1058.8	-0.37197	1394.5	0.13804	0.025398	0.091289	10.954	327.20	341.99	1.9029	0.53107	0.61420	130.64	217.11	7.3056	0.0040431
183.16	0.0015250	1555.8	0.00064275	87.233	87.234	0.50205	0.79203	1.1892	1052.3	-0.37073	1340.8	0.13728	0.025187	0.10242	9.7642	327.87	342.76	1.8972	0.53408	0.61732	131.04	206.20	7.3565	0.0041465
184.32	0.0017000	1552.7	0.00064404	88.622	88.623	0.50961	0.79242	1.1901	1046.4	-0.36958	1295.1	0.13660	0.024996	0.11346	8.8133	328.48	343.46	1.8922	0.53680	0.62014	131.40	197.02	7.4025	0.0042401
185.39	0.0018750	1549.8	0.00064522	89.895	89.896	0.51650	0.79282	1.1909	1040.9	-0.36849	1255.5	0.13598	0.024822	0.12444	8.0357	329.04	344.11	1.8877	0.53929	0.62273	131.72	189.13	7.4446	0.0043258
186.38	0.0020500	1547.2	0.00064633	91.071	91.072	0.52282	0.79323	1.1917	1035.9	-0.36746	1220.8	0.13541	0.024661	0.13536	7.3876	329.56	344.70	1.8836	0.54159	0.62513	132.02	182.27	7.4834	0.0044050
187.30	0.0022250	1544.8	0.00064735	92.164	92.165	0.52867	0.79364	1.1925	1031.3	-0.36649	1189.9	0.13488	0.024511	0.14622	6.8389	330.04	345.26	1.8800	0.54372	0.62735	132.30	176.23	7.5194	0.0044785
188.15	0.0024000	1542.5	0.00064832	93.186	93.188	0.53412	0.79404	1.1933	1027.0	-0.36557	1162.2	0.13439	0.024372	0.15703	6.3682	330.49	345.78	1.8766	0.54571	0.62944	132.56	170.85	7.5530	0.0045472
188.96	0.0025750	1540.3	0.00064923	94.147	94.149	0.53921	0.79444	1.1940	1022.9	-0.36468	1137.2	0.13393	0.024241	0.16779	5.9599	330.92	346.27	1.8734	0.54759	0.63140	132.80	166.03	7.5846	0.0046118
189.72	0.0027500	1538.3	0.00065009	95.055	95.057	0.54401	0.79484	1.1947	1019.1	-0.36384	1114.4	0.13350	0.024118	0.17850	5.6022	331.32	346.73	1.8706	0.54935	0.63325	133.03	161.67	7.6144	0.0046728
190.44	0.0029250	1536.3	0.00065091	95.915	95.917	0.54853	0.79523	1.1954	1015.4	-0.36302	1093.5	0.13309	0.024001	0.18917	5.2862	331.70	347.17	1.8679	0.55102	0.63501	133.24	157.70	7.6425	0.0047305
191.12	0.0031000	1534.5	0.00065169	96.732	96.734	0.55282	0.79561	1.1961	1012.0	-0.36224	1074.2	0.13270	0.023890	0.19980	5.0049	332.07	347.58	1.8653	0.55261	0.63668	133.44	154.07	7.6693	0.0047853
191.78	0.0032750	1532.7	0.00065243	97.512	97.514	0.55689	0.79599	1.1967	1008.7	-0.36148	1056.4	0.13233	0.023785	0.21040	4.7529	332.42	347.98	1.8629	0.55413	0.63828	133.64	150.73	7.6948	0.0048376
192.40	0.0034500	1531.0	0.00065315	98.257	98.260	0.56077	0.79636	1.1973	1005.6	-0.36075	1039.8	0.13198	0.023684	0.22095	4.5258	332.75	348.36	1.8607	0.55557	0.63981	133.82	147.64	7.7191	0.0048876
192.99	0.0036250	1529.4	0.00065383	98.972	98.974	0.56448	0.79672	1.1979	1002.6	-0.36005	1024.3	0.13164	0.023588	0.23148	4.3201	333.07	348.73	1.8586	0.55696	0.64127	133.99	144.78	7.7424	0.0049354
193.57	0.0038000	1527.9	0.00065449	99.658	99.660	0.56803	0.79708	1.1985	999.72	-0.35936	1009.7	0.13132	0.023495	0.24197	4.1328	333.38	349.08	1.8566	0.55829	0.64268	134.16	142.12	7.7647	0.0049814
194.12	0.0039750	1526.4	0.00065513	100.32	100.32	0.57143	0.79743	1.1991	996.96	-0.35870	996.10	0.13101	0.023407	0.25243	3.9615	333.67	349.42	1.8547	0.55957	0.64403	134.32	139.63	7.7862	0.0050256
194.65	0.0041500	1525.0	0.00065575	100.95	100.96	0.57470	0.79777	1.1997	994.31	-0.35805	983.23	0.13072	0.023321	0.26286	3.8043	333.96	349.75	1.8529	0.56080	0.64534	134.47	137.30	7.8068	0.0050681
195.16	0.0043250	1523.6	0.00065634	101.57	101.57	0.57785	0.79811	1.2002	991.74	-0.35742	971.08	0.13043	0.023239	0.27326	3.6595	334.23	350.06	1.8511	0.56199	0.64660	134.62	135.11	7.8268	0.0051092
195.65	0.0045000	1522.3	0.00065692	102.16	102.16	0.58089	0.79844	1.2008	989.27	-0.35681	959.57	0.13016	0.023159	0.28364	3.5256	334.50	350.37	1.8495	0.56314	0.64782	134.76	133.05	7.8460	0.0051489
196.13	0.0046750	1521.0	0.00065748	102.74	102.74	0.58382	0.79876	1.2013	986.88	-0.35621	948.64	0.12989	0.023082	0.29399	3.4015	334.76	350.66	1.8479	0.56425	0.64900	134.90	131.10	7.8646	0.0051873
196.60	0.0048500	1519.7	0.00065802	103.29	103.30	0.58666	0.79908	1.2018	984.56	-0.35562	938.25	0.12963	0.023007	0.30431	3.2861	335.01	350.95	1.8464	0.56533	0.65015	135.03	129.26	7.8827	0.0052245
197.05	0.0050250	1518.5	0.00065855	103.83	103.84	0.58941	0.79940	1.2023	982.32	-0.35505	928.35	0.12938	0.022935	0.31462	3.1785	335.25	351.23	1.8449	0.56637	0.65126	135.16	127.51	7.9001	0.0052606
197.48	0.0052000	1517.3	0.00065906	104.36	104.36	0.59207	0.79971	1.2028	980.14	-0.35449	918.89	0.12914	0.022865	0.32490	3.0779	335.49	351.50	1.8435	0.56739	0.65235	135.28	125.85	7.9171	0.0052956
197.91	0.0053750	1516.2	0.00065956	104.87	104.87	0.59465	0.80001	1.2033	978.02	-0.35395	909.86	0.12891	0.022797	0.33515	2.9837	335.72	351.76	1.8421	0.56838	0.65340	135.40	124.27	7.9336	0.0053297
198.32	0.0055500	1515.0	0.00066005	105.37	105.37	0.59716	0.80031	1.2038	975.97	-0.35341	901.20	0.12868	0.022731	0.34539	2.8953	335.95	352.01	1.8408	0.56934	0.65443	135.52	122.77	7.9496	0.0053628
198.72	0.0057250	1513.9	0.00066053	105.85	105.85	0.59960	0.80060	1.2042	973.97	-0.35289	892.90	0.12846	0.022666	0.35560	2.8121	336.16	352.26	1.8396	0.57027	0.65543	135.63	121.33	7.9652	0.0053951
199.11	0.0059000	1512.9	0.00066099	106.32	106.33	0.60197	0.80089	1.2047	972.02	-0.35237	884.93	0.12824	0.022603	0.36579	2.7338	336.38	352.51	1.8384	0.57118	0.65641	135.74	119.96	7.9803	0.0054266
199.50	0.0060750	1511.8	0.00066145	106.78	106.79	0.60428	0.80118	1.2051	970.12	-0.35187	877.27	0.12803	0.022542	0.37597	2.6598	336.59	352.74	1.8372	0.57207	0.65736	135.84	118.64	7.9952	0.0054573
199.87	0.0062500	1510.8	0.00066189	107.23	107.24	0.60653	0.80146	1.2056	968.26	-0.35137	869.89	0.12783	0.022483	0.38613	2.5898	336.79	352.98	1.8360	0.57294	0.65829	135.95	117.38	8.0096	0.0054872
200.23	0.0064250	1509.8	0.00066232	107.67	107.67	0.60872	0.80173	1.2060	966.45	-0.35088	862.79	0.12763	0.022424	0.39626	2.5236	336.99	353.20	1.8349	0.57379	0.65920	136.05	116.17	8.0237	0.0055165
200.59	0.0066000	1508.9	0.00066275	108.10	108.10	0.61087	0.80200	1.2065	964.69	-0.35040	855.93	0.12743	0.022367	0.40638	2.4607	337.18	353.42	1.8339	0.57461	0.66009	136.15	115.01	8.0375	0.0055451
200.94	0.0067750	1507.9	0.00066317	108.52	108.52	0.61296	0.80227	1.2069	962.96	-0.34993	849.31	0.12724	0.022312	0.41648	2.4011	337.37	353.64	1.8328	0.57543	0.66097	136.24	113.89	8.0509	0.0055730
201.28	0.0069500	1507.0	0.00066357	108.93	108.94	0.61500	0.80254	1.2073	961.27	-0.34947	842.92	0.12706	0.022257	0.42657	2.3443	337.56	353.85	1.8318	0.57622	0.66182	136.34	112.81	8.0641	0.0056004
201.61	0.0071250	1506.1	0.00066398	109.33	109.34	0.61700	0.80280	1.2077	959.62	-0.34902	836.73	0.12688	0.022204	0.43664	2.2902	337.74	354.06	1.8308	0.57700	0.66266	136.43	111.78	8.0770	0.0056272
201.94	0.0073000	1505.2	0.00066437	109.73	109.73	0.61896	0.80305	1.2081	958.00	-0.34857	830.74	0.12670	0.022152	0.44669	2.2387	337.92	354.26	1.8299	0.57776	0.66348	136.52	110.78	8.0896	0.0056534
202.26	0.0074750	1504.3	0.00066475	110.12	110.12	0.62087	0.80331	1.2085	956.41	-0.34813	824.93	0.12652	0.022101	0.45673	2.1895	338.10	354.46	1.8290	0.57850	0.66429	136.60	109.81	8.1020	0.0056792
202.57	0.0076500	1503.5	0.00066513	110.49	110.50	0.62275	0.80356	1.2089	954.86	-0.34769	819.31	0.12635	0.022051	0.46675	2.1425	338.27	354.66	1.8281	0.57923	0.66508	136.69	108.88	8.1141	0.0057044
202.88	0.0078250	1502.6	0.00066551	110.87	110.87	0.62458	0.80380	1.2093	953.34	-0.34726	813.85	0.12619	0.022002	0.47675	2.0975	338.44	354.85	1.8272	0.57995	0.66586	136.77	107.98	8.1260	0.0057292
203.18	0.0080000	1501.8	0.00066587	111.23	111.24	0.62638	0.80405	1.2096	951.84	-0.34684	808.54	0.12602	0.021953	0.48675	2.0545	338.61	355.04	1.8263	0.58066	0.66662	136.85	107.10	8.1376	0.0057535
203.48	0.0081750	1501.0	0.00066623	111.59	111.60	0.62815	0.80429	1.2100	950.38	-0.34642	803.39	0.12586	0.021906	0.49672	2.0132	338.77	355.23	1.8255	0.58135	0.66738	136.93	106.26	8.1491	0.0057773
203.77	0.0083500	1500.2	0.00066659	111.94	111.95	0.62988	0.80453	1.2104	948.94	-0.34601	798.38	0.12570	0.021860	0.50669	1.9736	338.93	355.41	1.8247	0.58203	0.66811	137.01	105.44	8.1603	0.0058007
204.06	0.0085250	1499.4	0.00066693	112.29	112.30	0.63158	0.80476	1.2107	947.52	-0.34560	793.51	0.12555	0.021814	0.51664	1.9356	339.09	355.59	1.8239	0.58270	0.66884	137.09	104.64	8.1714	0.0058238
204.34	0.0087000	1498.6	0.00066728	112.63	112.64	0.63325	0.80499	1.2111	946.13	-0.34520	788.77	0.12540	0.021769	0.52658	1.8991	339.24	355.76	1.8231	0.58336	0.66956	137.16	103.87	8.1822	0.0058464
204.62	0.0088750	1497.9	0.00066762	112.97	112.97	0.63489	0.80522	1.2115	944.77	-0.34481	784.15	0.12525	0.021725	0.53650	1.8639	339.40	355.94	1.8223	0.58400	0.67026	137.24	103.12	8.1929	0.0058687
204.89	0.0090500	1497.1	0.00066795	113.30	113.30	0.63650	0.80545	1.2118	943.42	-0.34442	779.65	0.12510	0.021682	0.54641	1.8301	339.55	356.11	1.8216	0.58464	0.67095	137.31	102.39	8.2033	0.0058905
205.16	0.0092250	1496.4	0.00066828	113.62	113.63	0.63809	0.80567	1.2122	942.10	-0.34403	775.26	0.12496	0.021640	0.55631	1.7976	339.69	356.28	1.8208	0.58526	0.67164	137.38	101.68	8.2136	0.0059121
205.42	0.0094000	1495.7	0.00066860	113.94	113.95	0.63965	0.80589	1.2125	940.80	-0.34365	770.97	0.12482	0.021598	0.56620	1.7662	339.84	356.44	1.8201	0.58588	0.67231	137.45	101.00	8.2238	0.0059333
205.68	0.0095750	1495.0	0.00066892	114.26	114.26	0.64118	0.80611	1.2128	939.53	-0.34327	766.80	0.12468	0.021556	0.57607	1.7359	339.98	356.60	1.8194	0.58649	0.67297	137.52	100.33	8.2338	0.0059542
205.93	0.0097500	1494.2	0.00066923	114.57	114.57	0.64269	0.80633	1.2132	938.27	-0.34290	762.72	0.12454	0.021516	0.58593	1.7067	340.12	356.76	1.8187	0.58709	0.67362	137.58	99.674	8.2436	0.0059748
206.19	0.0099250	1493.6	0.00066954	114.87	114.88	0.64417	0.80654	1.2135	937.03	-0.34253	758.73	0.12440	0.021476	0.59578	1.6785	340.26	356.92	1.8181	0.58768	0.67427	137.65	99.038	8.2533	0.0059950
206.44	0.010100	1492.9	0.00066985	115.17	115.18	0.64563	0.80675	1.2138	935.81	-0.34216	754.84	0.12427	0.021436	0.60562	1.6512	340.40	357.08	1.8174	0.58826	0.67491	137.72	98.419	8.2628	0.0060150
206.68	0.010275	1492.2	0.00067015	115.47	115.48	0.64707	0.80696	1.2141	934.60	-0.34180	751.03	0.12414	0.021398	0.61545	1.6248	340.54	357.23	1.8168	0.58883	0.67553	137.78	97.815	8.2722	0.0060347
206.92	0.010450	1491.5	0.00067045	115.76	115.77	0.64848	0.80717	1.2145	933.42	-0.34145	747.31	0.12401	0.021359	0.62527	1.5993	340.67	357.38	1.8161	0.58939	0.67615	137.84	97.225	8.2815	0.0060541
207.16	0.010625	1490.9	0.00067074	116.05	116.06	0.64988	0.80737	1.2148	932.25	-0.34109	743.66	0.12388	0.021322	0.63508	1.5746	340.80	357.53	1.8155	0.58995	0.67676	137.90	96.650	8.2906	0.0060732
207.39	0.010800	1490.2	0.00067103	116.34	116.35	0.65126	0.80757	1.2151	931.10	-0.34074	740.10	0.12376	0.021285	0.64487	1.5507	340.93	357.68	1.8149	0.59050	0.67737	137.97	96.089	8.2996	0.0060921
207.63	0.010975	1489.6	0.00067132	116.62	116.63	0.65261	0.80778	1.2154	929.96	-0.34040	736.61	0.12363	0.021248	0.65466	1.5275	341.06	357.83	1.8143	0.59104	0.67796	138.02	95.540	8.3085	0.0061107
207.85	0.011150	1489.0	0.00067160	116.90	116.90	0.65395	0.80797	1.2157	928.84	-0.34005	733.19	0.12351	0.021212	0.66443	1.5050	341.19	357.97	1.8137	0.59158	0.67855	138.08	95.004	8.3172	0.0061291
208.08	0.011325	1488.4	0.00067188	117.17	117.18	0.65527	0.80817	1.2160	927.73	-0.33971	729.84	0.12339	0.021176	0.67420	1.4832	341.31	358.11	1.8132	0.59211	0.67913	138.14	94.480	8.3259	0.0061472
208.30	0.011500	1487.7	0.00067216	117.44	117.45	0.65657	0.80836	1.2163	926.64	-0.33938	726.55	0.12327	0.021141	0.68396	1.4621	341.44	358.25	1.8126	0.59263	0.67971	138.20	93.968	8.3344	0.0061651
208.52	0.011675	1487.1	0.00067243	117.71	117.72	0.65785	0.80856	1.2166	925.57	-0.33905	723.34	0.12316	0.021106	0.69370	1.4415	341.56	358.39	1.8120	0.59314	0.68028	138.26	93.467	8.3428	0.0061828
208.74	0.011850	1486.5	0.00067270	117.97	117.98	0.65912	0.80875	1.2169	924.50	-0.33872	720.18	0.12304	0.021072	0.70344	1.4216	341.68	358.53	1.8115	0.59365	0.68084	138.31	92.976	8.3511	0.0062003
208.95	0.012025	1485.9	0.00067297	118.23	118.24	0.66037	0.80894	1.2172	923.45	-0.33839	717.08	0.12293	0.021038	0.71317	1.4022	341.80	358.66	1.8110	0.59416	0.68139	138.37	92.496	8.3593	0.0062176
209.17	0.012200	1485.4	0.00067324	118.49	118.50	0.66160	0.80913	1.2175	922.42	-0.33806	714.04	0.12282	0.021004	0.72288	1.3833	341.92	358.80	1.8104	0.59466	0.68194	138.42	92.026	8.3674	0.0062346
209.37	0.012375	1484.8	0.00067350	118.75	118.76	0.66282	0.80931	1.2178	921.39	-0.33774	711.06	0.12270	0.020971	0.73259	1.3650	342.04	358.93	1.8099	0.59515	0.68249	138.47	91.566	8.3754	0.0062515
209.58	0.012550	1484.2	0.00067376	119.00	119.01	0.66402	0.80950	1.2180	920.38	-0.33743	708.13	0.12259	0.020939	0.74229	1.3472	342.15	359.06	1.8094	0.59563	0.68303	138.53	91.115	8.3834	0.0062681
209.79	0.012725	1483.6	0.00067401	119.25	119.26	0.66521	0.80968	1.2183	919.38	-0.33711	705.26	0.12249	0.020906	0.75198	1.3298	342.26	359.19	1.8089	0.59611	0.68356	138.58	90.673	8.3912	0.0062846
209.99	0.012900	1483.1	0.00067427	119.49	119.50	0.66638	0.80986	1.2186	918.39	-0.33680	702.43	0.12238	0.020874	0.76167	1.3129	342.38	359.31	1.8084	0.59659	0.68408	138.63	90.240	8.3989	0.0063008
210.19	0.013075	1482.5	0.00067452	119.74	119.75	0.66754	0.81004	1.2189	917.41	-0.33649	699.66	0.12227	0.020843	0.77134	1.2964	342.49	359.44	1.8079	0.59706	0.68460	138.68	89.815	8.4065	0.0063169
210.39	0.013250	1482.0	0.00067477	119.98	119.99	0.66869	0.81022	1.2191	916.45	-0.33618	696.93	0.12217	0.020812	0.78101	1.2804	342.60	359.56	1.8074	0.59752	0.68512	138.73	89.398	8.4141	0.0063329
210.58	0.013425	1481.4	0.00067501	120.22	120.23	0.66982	0.81039	1.2194	915.49	-0.33587	694.25	0.12207	0.020781	0.79066	1.2648	342.71	359.69	1.8070	0.59798	0.68563	138.78	88.989	8.4216	0.0063486
210.78	0.013600	1480.9	0.00067526	120.45	120.46	0.67094	0.81057	1.2197	914.55	-0.33557	691.61	0.12196	0.020750	0.80031	1.2495	342.82	359.81	1.8065	0.59844	0.68614	138.83	88.587	8.4289	0.0063642
210.97	0.013775	1480.4	0.00067550	120.69	120.70	0.67205	0.81074	1.2200	913.61	-0.33527	689.02	0.12186	0.020720	0.80995	1.2346	342.92	359.93	1.8060	0.59889	0.68664	138.87	88.193	8.4362	0.0063796
211.16	0.013950	1479.9	0.00067574	120.92	120.93	0.67314	0.81091	1.2202	912.69	-0.33497	686.47	0.12176	0.020690	0.81958	1.2201	343.03	360.05	1.8056	0.59934	0.68713	138.92	87.807	8.4435	0.0063948
211.34	0.014125	1479.3	0.00067598	121.15	121.16	0.67423	0.81108	1.2205	911.77	-0.33468	683.96	0.12166	0.020661	0.82921	1.2060	343.13	360.17	1.8051	0.59978	0.68763	138.97	87.427	8.4506	0.0064099
211.53	0.014300	1478.8	0.00067621	121.37	121.38	0.67530	0.81125	1.2207	910.87	-0.33438	681.49	0.12157	0.020632	0.83883	1.1921	343.24	360.29	1.8047	0.60022	0.68811	139.01	87.054	8.4577	0.0064249
211.71	0.014475	1478.3	0.00067644	121.60	121.61	0.67636	0.81142	1.2210	909.97	-0.33409	679.06	0.12147	0.020603	0.84844	1.1786	343.34	360.40	1.8043	0.60065	0.68859	139.06	86.687	8.4647	0.0064397
211.89	0.014650	1477.8	0.00067667	121.82	121.83	0.67740	0.81158	1.2212	909.09	-0.33380	676.67	0.12137	0.020574	0.85804	1.1655	343.44	360.52	1.8038	0.60108	0.68907	139.10	86.326	8.4716	0.0064543
212.07	0.014825	1477.3	0.00067690	122.04	122.05	0.67844	0.81175	1.2215	908.21	-0.33351	674.31	0.12128	0.020546	0.86763	1.1526	343.54	360.63	1.8034	0.60150	0.68955	139.15	85.972	8.4785	0.0064688
212.25	0.015000	1476.8	0.00067713	122.26	122.27	0.67947	0.81191	1.2218	907.34	-0.33323	671.99	0.12119	0.020518	0.87722	1.1400	343.64	360.74	1.8030	0.60192	0.69002	139.19	85.624	8.4853	0.0064832
212.43	0.015175	1476.3	0.00067735	122.47	122.48	0.68048	0.81207	1.2220	906.48	-0.33295	669.70	0.12109	0.020490	0.88680	1.1277	343.74	360.85	1.8026	0.60234	0.69048	139.23	85.281	8.4920	0.0064974
212.60	0.015350	1475.8	0.00067758	122.69	122.70	0.68149	0.81224	1.2223	905.63	-0.33266	667.45	0.12100	0.020463	0.89637	1.1156	343.84	360.97	1.8022	0.60275	0.69094	139.28	84.944	8.4987	0.0065115
212.78	0.015525	1475.4	0.00067780	122.90	122.91	0.68248	0.81240	1.2225	904.79	-0.33239	665.23	0.12091	0.020435	0.90594	1.1038	343.94	361.07	1.8018	0.60316	0.69140	139.32	84.613	8.5053	0.0065255
212.95	0.015700	1474.9	0.00067802	123.11	123.12	0.68347	0.81255	1.2227	903.95	-0.33211	663.05	0.12082	0.020408	0.91549	1.0923	344.03	361.18	1.8014	0.60357	0.69186	139.36	84.287	8.5118	0.0065393
213.12	0.015875	1474.4	0.00067823	123.32	123.33	0.68445	0.81271	1.2230	903.13	-0.33183	660.89	0.12073	0.020382	0.92504	1.0810	344.13	361.29	1.8010	0.60397	0.69231	139.40	83.966	8.5183	0.0065530
213.29	0.016050	1473.9	0.00067845	123.52	123.53	0.68541	0.81287	1.2232	902.31	-0.33156	658.77	0.12064	0.020355	0.93459	1.0700	344.22	361.40	1.8006	0.60437	0.69275	139.44	83.650	8.5247	0.0065666
213.46	0.016225	1473.5	0.00067866	123.73	123.74	0.68637	0.81302	1.2235	901.49	-0.33129	656.67	0.12056	0.020329	0.94413	1.0592	344.32	361.50	1.8003	0.60476	0.69320	139.48	83.339	8.5310	0.0065800
213.62	0.016400	1473.0	0.00067887	123.93	123.94	0.68732	0.81318	1.2237	900.69	-0.33102	654.60	0.12047	0.020303	0.95366	1.0486	344.41	361.61	1.7999	0.60516	0.69363	139.52	83.033	8.5373	0.0065934
213.78	0.016575	1472.6	0.00067909	124.13	124.14	0.68826	0.81333	1.2239	899.89	-0.33075	652.57	0.12038	0.020277	0.96318	1.0382	344.50	361.71	1.7995	0.60554	0.69407	139.56	82.731	8.5436	0.0066066
213.95	0.016750	1472.1	0.00067929	124.33	124.34	0.68919	0.81348	1.2242	899.10	-0.33048	650.56	0.12030	0.020252	0.97270	1.0281	344.59	361.81	1.7992	0.60593	0.69450	139.60	82.434	8.5497	0.0066197
214.11	0.016925	1471.7	0.00067950	124.53	124.54	0.69011	0.81363	1.2244	898.32	-0.33022	648.57	0.12022	0.020226	0.98221	1.0181	344.69	361.92	1.7988	0.60631	0.69493	139.64	82.141	8.5559	0.0066327
214.27	0.017100	1471.2	0.00067971	124.72	124.73	0.69103	0.81378	1.2246	897.54	-0.32995	646.61	0.12013	0.020201	0.99172	1.0084	344.78	362.02	1.7984	0.60669	0.69536	139.68	81.853	8.5619	0.0066456
214.43	0.017275	1470.8	0.00067991	124.92	124.93	0.69193	0.81393	1.2249	896.77	-0.32969	644.68	0.12005	0.020177	1.0012	0.99879	344.86	362.12	1.7981	0.60707	0.69578	139.72	81.569	8.5680	0.0066584
214.58	0.017450	1470.3	0.00068011	125.11	125.12	0.69283	0.81408	1.2251	896.01	-0.32943	642.78	0.11997	0.020152	1.0107	0.98941	344.95	362.22	1.7977	0.60744	0.69620	139.76	81.289	8.5739	0.0066710
214.74	0.017625	1469.9	0.00068031	125.30	125.31	0.69372	0.81423	1.2253	895.25	-0.32917	640.89	0.11989	0.020127	1.0202	0.98021	345.04	362.32	1.7974	0.60781	0.69662	139.79	81.012	8.5798	0.0066836
214.90	0.017800	1469.5	0.00068051	125.49	125.50	0.69460	0.81437	1.2255	894.50	-0.32892	639.04	0.11981	0.020103	1.0297	0.97118	345.13	362.41	1.7971	0.60818	0.69703	139.83	80.740	8.5857	0.0066961
215.05	0.017975	1469.1	0.00068071	125.68	125.69	0.69548	0.81452	1.2258	893.76	-0.32866	637.20	0.11973	0.020079	1.0391	0.96233	345.21	362.51	1.7967	0.60854	0.69744	139.87	80.472	8.5915	0.0067084
215.20	0.018150	1468.6	0.00068091	125.86	125.88	0.69634	0.81466	1.2260	893.02	-0.32841	635.39	0.11965	0.020055	1.0486	0.95364	345.30	362.61	1.7964	0.60890	0.69785	139.90	80.207	8.5973	0.0067207
215.35	0.018325	1468.2	0.00068110	126.05	126.06	0.69720	0.81481	1.2262	892.29	-0.32815	633.60	0.11957	0.020032	1.0581	0.94511	345.38	362.70	1.7961	0.60926	0.69825	139.94	79.946	8.6030	0.0067329
